File: demo_data/empty_103-303-2.txt
Filename:	C:\Program Files (x86)\PerkinElmer\Pyris\data\empty_103-303-2.ds8d
Operator ID:
Sample ID:	Empty
Comment:
Serial Number:
Data Collected:	7/16/2024 6:21:19 PM
Sample Weight:	0.000 mg
Display Weight:	0.000
Validation
Validated:	No
By:
Date:
Calibration Information
Filename:	C:\Program Files (x86)\PerkinElmer\Pyris\Calibrations\Calib100to400_07162024-1.ds8c
Date/Time:	7/16/2024 3:47:43 PM
Initial Conditions
Temperature:	 103.00 °C
Purge Gas:
Purge Gas Rate:
Baseline Filename:
End Condition:	Go To Load
Total Points in Run:	44948
Method Steps:
Pre-Run Actions
Switch the Gas to Nitrogen at 20.0 ml/min
	Action occurs Immediately
Start the Run
	Action occurs Immediately
1)	Hold for 5.0 min at 103.00°C

2)	Heat from 103.00°C to 113.00°C at 15.00°C/min

3)	Hold for 2.0 min at 113.00°C

4)	Heat from 113.00°C to 123.00°C at 15.00°C/min

5)	Hold for 2.0 min at 123.00°C

6)	Heat from 123.00°C to 133.00°C at 15.00°C/min

7)	Hold for 2.0 min at 133.00°C

8)	Heat from 133.00°C to 143.00°C at 15.00°C/min

9)	Hold for 2.0 min at 143.00°C

10)	Heat from 143.00°C to 153.00°C at 15.00°C/min

11)	Hold for 2.0 min at 153.00°C

12)	Heat from 153.00°C to 163.00°C at 15.00°C/min

13)	Hold for 2.0 min at 163.00°C

14)	Heat from 163.00°C to 173.00°C at 15.00°C/min

15)	Hold for 2.0 min at 173.00°C

16)	Heat from 173.00°C to 183.00°C at 15.00°C/min

17)	Hold for 2.0 min at 183.00°C

18)	Heat from 183.00°C to 193.00°C at 15.00°C/min

19)	Hold for 2.0 min at 193.00°C

20)	Heat from 193.00°C to 203.00°C at 15.00°C/min

21)	Hold for 2.0 min at 203.00°C

22)	Heat from 203.00°C to 213.00°C at 15.00°C/min

23)	Hold for 2.0 min at 213.00°C

24)	Heat from 213.00°C to 223.00°C at 15.00°C/min

25)	Hold for 2.0 min at 223.00°C

26)	Heat from 223.00°C to 233.00°C at 15.00°C/min

27)	Hold for 2.0 min at 233.00°C

28)	Heat from 233.00°C to 243.00°C at 15.00°C/min

29)	Hold for 2.0 min at 243.00°C

30)	Heat from 243.00°C to 253.00°C at 15.00°C/min

31)	Hold for 2.0 min at 253.00°C

32)	Heat from 253.00°C to 263.00°C at 15.00°C/min

33)	Hold for 2.0 min at 263.00°C

34)	Heat from 263.00°C to 273.00°C at 15.00°C/min

35)	Hold for 2.0 min at 273.00°C

36)	Heat from 273.00°C to 283.00°C at 15.00°C/min

37)	Hold for 2.0 min at 283.00°C

38)	Heat from 283.00°C to 293.00°C at 15.00°C/min

39)	Hold for 2.0 min at 293.00°C

40)	Heat from 293.00°C to 303.00°C at 15.00°C/min

41)	Hold for 3.0 min at 303.00°C

1) DSC 8500 Isothermal
	Time     	Unsubtracted	Baseline     	Program     	Sample     	Approx.     	Heat Flow     	Uncorrected
	          	Heat Flow     	Heat Flow     	Temperature	Temperature	Gas Flow     	Calibration	Heat Flow
	0.000000	10.4976	0.000000	103	100.854	0.000000	1.062475	12.8771
	0.033333	15.9242	0.000000	103	102.545	0.000000	1.062500	10.4211
	0.066667	18.1138	0.000000	103	102.758	0.000000	1.062504	12.7843
	0.100000	17.3045	0.000000	103	102.854	0.000000	1.062505	11.9863
	0.133333	13.3285	0.000000	103	102.904	0.000000	1.062506	8.974774
	0.166667	8.524906	0.000000	103	102.933	0.000000	1.062506	6.238930
	0.200000	4.847910	0.000000	103	102.95	0.000000	1.062506	4.462421
	0.233333	2.588131	0.000000	103	102.954	0.000000	1.062507	3.458034
	0.266667	1.337311	0.000000	103	102.962	0.000000	1.062507	2.925931
	0.300000	0.677949	0.000000	103	102.966	0.000000	1.062507	2.652867
	0.333333	0.343130	0.000000	103	102.966	0.000000	1.062507	2.515272
	0.366667	0.171101	0.000000	103	102.97	0.000000	1.062507	2.446634
	0.400000	0.081549	0.000000	103	102.966	0.000000	1.062507	2.412422
	0.433333	0.038356	0.000000	103	102.97	0.000000	1.062507	2.396272
	0.466667	0.016214	0.000000	103	102.97	0.000000	1.062507	2.388515
	0.500000	0.005480	0.000000	103	102.97	0.000000	1.062507	2.385009
	0.533333	0.003886	0.000000	103	102.97	0.000000	1.062507	2.383415
	0.566667	0.003248	0.000000	103	102.97	0.000000	1.062507	2.382778
	0.600000	0.003567	0.000000	103	102.97	0.000000	1.062507	2.383096
	0.633333	0.003992	0.000000	103	102.97	0.000000	1.062507	2.383521
	0.666667	0.004205	0.000000	103	102.97	0.000000	1.062507	2.383734
	0.700000	0.004736	0.000000	103	102.97	0.000000	1.062507	2.384265
	0.733333	0.005055	0.000000	103	102.97	0.000000	1.062507	2.384584
	0.766667	0.005480	0.000000	103	102.97	0.000000	1.062507	2.385009
	0.800000	0.006117	0.000000	103	102.97	0.000000	1.062507	2.385646
	0.833333	0.006436	0.000000	103	102.97	0.000000	1.062507	2.385965
	0.866667	0.006755	0.000000	103	102.97	0.000000	1.062507	2.386284
	0.900000	0.007180	0.000000	103	102.97	0.000000	1.062507	2.386709
	0.933333	0.007605	0.000000	103	102.97	0.000000	1.062507	2.387134
	0.966667	0.008136	0.000000	103	102.97	0.000000	1.062507	2.387665
	1.000000	0.008136	0.000000	103	102.97	0.000000	1.062507	2.387665
	1.033333	0.008242	0.000000	103	102.97	0.000000	1.062507	2.387771
	1.066667	0.008561	0.000000	103	102.97	0.000000	1.062507	2.388090
	1.100000	0.009092	0.000000	103	102.97	0.000000	1.062507	2.388621
	1.133333	0.009411	0.000000	103	102.97	0.000000	1.062507	2.388940
	1.166667	0.009517	0.000000	103	102.97	0.000000	1.062507	2.389047
	1.200000	0.009411	0.000000	103	102.97	0.000000	1.062507	2.388940
	1.233333	0.009836	0.000000	103	102.97	0.000000	1.062507	2.389365
	1.266667	0.010155	0.000000	103	102.97	0.000000	1.062507	2.389684
	1.300000	0.010580	0.000000	103	102.97	0.000000	1.062507	2.390109
	1.333333	0.010473	0.000000	103	102.97	0.000000	1.062507	2.390003
	1.366667	0.010367	0.000000	103	102.97	0.000000	1.062507	2.389897
	1.400000	0.010686	0.000000	103	102.97	0.000000	1.062507	2.390215
	1.433333	0.010898	0.000000	103	102.97	0.000000	1.062507	2.390428
	1.466667	0.010792	0.000000	103	102.97	0.000000	1.062507	2.390322
	1.500000	0.010898	0.000000	103	102.97	0.000000	1.062507	2.390428
	1.533333	0.010580	0.000000	103	102.97	0.000000	1.062507	2.390109
	1.566667	0.010367	0.000000	103	102.97	0.000000	1.062507	2.389897
	1.600000	0.010473	0.000000	103	102.97	0.000000	1.062507	2.390003
	1.633333	0.010155	0.000000	103	102.97	0.000000	1.062507	2.389684
	1.666667	0.009730	0.000000	103	102.97	0.000000	1.062507	2.389259
	1.700000	0.009623	0.000000	103	102.97	0.000000	1.062507	2.389153
	1.733333	0.009730	0.000000	103	102.97	0.000000	1.062507	2.389259
	1.766667	0.009623	0.000000	103	102.97	0.000000	1.062507	2.389153
	1.800000	0.009623	0.000000	103	102.97	0.000000	1.062507	2.389153
	1.833333	0.009517	0.000000	103	102.97	0.000000	1.062507	2.389047
	1.866667	0.009517	0.000000	103	102.97	0.000000	1.062507	2.389047
	1.900000	0.009517	0.000000	103	102.97	0.000000	1.062507	2.389047
	1.933333	0.009411	0.000000	103	102.97	0.000000	1.062507	2.388940
	1.966667	0.009411	0.000000	103	102.97	0.000000	1.062507	2.388940
	2.000000	0.009198	0.000000	103	102.97	0.000000	1.062507	2.388728
	2.033333	0.009092	0.000000	103	102.97	0.000000	1.062507	2.388621
	2.066667	0.009092	0.000000	103	102.97	0.000000	1.062507	2.388621
	2.100000	0.009411	0.000000	103	102.97	0.000000	1.062507	2.388940
	2.133333	0.009730	0.000000	103	102.97	0.000000	1.062507	2.389259
	2.166667	0.009836	0.000000	103	102.97	0.000000	1.062507	2.389365
	2.200000	0.010155	0.000000	103	102.97	0.000000	1.062507	2.389684
	2.233333	0.010686	0.000000	103	102.97	0.000000	1.062507	2.390215
	2.266667	0.010792	0.000000	103	102.97	0.000000	1.062507	2.390322
	2.300000	0.010898	0.000000	103	102.97	0.000000	1.062507	2.390428
	2.333333	0.011111	0.000000	103	102.97	0.000000	1.062507	2.390640
	2.366667	0.011111	0.000000	103	102.97	0.000000	1.062507	2.390640
	2.400000	0.011005	0.000000	103	102.97	0.000000	1.062507	2.390534
	2.433333	0.011217	0.000000	103	102.97	0.000000	1.062507	2.390747
	2.466667	0.011430	0.000000	103	102.97	0.000000	1.062507	2.390959
	2.500000	0.011430	0.000000	103	102.97	0.000000	1.062507	2.390959
	2.533333	0.011217	0.000000	103	102.97	0.000000	1.062507	2.390747
	2.566667	0.011323	0.000000	103	102.97	0.000000	1.062507	2.390853
	2.600000	0.011642	0.000000	103	102.97	0.000000	1.062507	2.391172
	2.633333	0.011642	0.000000	103	102.97	0.000000	1.062507	2.391172
	2.666667	0.011855	0.000000	103	102.97	0.000000	1.062507	2.391384
	2.700000	0.012173	0.000000	103	102.97	0.000000	1.062507	2.391703
	2.733333	0.012173	0.000000	103	102.97	0.000000	1.062507	2.391703
	2.766667	0.012386	0.000000	103	102.97	0.000000	1.062507	2.391915
	2.800000	0.012386	0.000000	103	102.97	0.000000	1.062507	2.391915
	2.833333	0.012811	0.000000	103	102.97	0.000000	1.062507	2.392340
	2.866667	0.013023	0.000000	103	102.97	0.000000	1.062507	2.392553
	2.900000	0.012917	0.000000	103	102.966	0.000000	1.062507	2.392446
	2.933333	0.013023	0.000000	103	102.97	0.000000	1.062507	2.392553
	2.966667	0.013236	0.000000	103	102.97	0.000000	1.062507	2.392765
	3.000000	0.013448	0.000000	103	102.97	0.000000	1.062507	2.392978
	3.033333	0.013661	0.000000	103	102.97	0.000000	1.062507	2.393190
	3.066667	0.013767	0.000000	103	102.97	0.000000	1.062507	2.393297
	3.100000	0.014086	0.000000	103	102.97	0.000000	1.062507	2.393615
	3.133333	0.014511	0.000000	103	102.97	0.000000	1.062507	2.394040
	3.166667	0.014617	0.000000	103	102.97	0.000000	1.062507	2.394147
	3.200000	0.014830	0.000000	103	102.966	0.000000	1.062507	2.394359
	3.233333	0.015148	0.000000	103	102.97	0.000000	1.062507	2.394678
	3.266667	0.015467	0.000000	103	102.97	0.000000	1.062507	2.394997
	3.300000	0.015786	0.000000	103	102.966	0.000000	1.062507	2.395315
	3.333333	0.016105	0.000000	103	102.97	0.000000	1.062507	2.395634
	3.366667	0.015998	0.000000	103	102.97	0.000000	1.062507	2.395528
	3.400000	0.016423	0.000000	103	102.97	0.000000	1.062507	2.395953
	3.433333	0.016317	0.000000	103	102.966	0.000000	1.062507	2.395846
	3.466667	0.016317	0.000000	103	102.97	0.000000	1.062507	2.395847
	3.500000	0.016211	0.000000	103	102.97	0.000000	1.062507	2.395740
	3.533333	0.015998	0.000000	103	102.966	0.000000	1.062507	2.395528
	3.566667	0.015892	0.000000	103	102.966	0.000000	1.062507	2.395421
	3.600000	0.015680	0.000000	103	102.966	0.000000	1.062507	2.395209
	3.633333	0.015467	0.000000	103	102.966	0.000000	1.062507	2.394996
	3.666667	0.015361	0.000000	103	102.97	0.000000	1.062507	2.394890
	3.700000	0.015042	0.000000	103	102.966	0.000000	1.062507	2.394571
	3.733333	0.014936	0.000000	103	102.966	0.000000	1.062507	2.394465
	3.766667	0.014617	0.000000	103	102.966	0.000000	1.062507	2.394146
	3.800000	0.014298	0.000000	103	102.966	0.000000	1.062507	2.393828
	3.833333	0.014192	0.000000	103	102.97	0.000000	1.062507	2.393722
	3.866667	0.014298	0.000000	103	102.966	0.000000	1.062507	2.393828
	3.900000	0.014298	0.000000	103	102.966	0.000000	1.062507	2.393828
	3.933333	0.014298	0.000000	103	102.966	0.000000	1.062507	2.393828
	3.966667	0.014192	0.000000	103	102.966	0.000000	1.062507	2.393721
	4.000000	0.013980	0.000000	103	102.966	0.000000	1.062507	2.393509
	4.033333	0.014192	0.000000	103	102.966	0.000000	1.062507	2.393721
	4.066667	0.013980	0.000000	103	102.966	0.000000	1.062507	2.393509
	4.100000	0.013873	0.000000	103	102.966	0.000000	1.062507	2.393403
	4.133333	0.013873	0.000000	103	102.966	0.000000	1.062507	2.393403
	4.166667	0.013767	0.000000	103	102.966	0.000000	1.062507	2.393296
	4.200000	0.013661	0.000000	103	102.966	0.000000	1.062507	2.393190
	4.233333	0.013767	0.000000	103	102.966	0.000000	1.062507	2.393296
	4.266667	0.013767	0.000000	103	102.966	0.000000	1.062507	2.393296
	4.300000	0.013767	0.000000	103	102.966	0.000000	1.062507	2.393296
	4.333333	0.013980	0.000000	103	102.966	0.000000	1.062507	2.393509
	4.366667	0.014192	0.000000	103	102.966	0.000000	1.062507	2.393721
	4.400000	0.014723	0.000000	103	102.966	0.000000	1.062507	2.394253
	4.433333	0.015148	0.000000	103	102.966	0.000000	1.062507	2.394678
	4.466667	0.015892	0.000000	103	102.966	0.000000	1.062507	2.395421
	4.500000	0.015786	0.000000	103	102.966	0.000000	1.062507	2.395315
	4.533333	0.016105	0.000000	103	102.966	0.000000	1.062507	2.395634
	4.566667	0.016317	0.000000	103	102.966	0.000000	1.062507	2.395846
	4.600000	0.016530	0.000000	103	102.966	0.000000	1.062507	2.396059
	4.633333	0.016742	0.000000	103	102.966	0.000000	1.062507	2.396271
	4.666667	0.016742	0.000000	103	102.966	0.000000	1.062507	2.396271
	4.700000	0.016636	0.000000	103	102.966	0.000000	1.062507	2.396165
	4.733333	0.016530	0.000000	103	102.966	0.000000	1.062507	2.396059
	4.766667	0.016423	0.000000	103	102.966	0.000000	1.062507	2.395953
	4.800000	0.016211	0.000000	103	102.966	0.000000	1.062507	2.395740
	4.833333	0.016105	0.000000	103	102.966	0.000000	1.062507	2.395634
	4.866667	0.015786	0.000000	103	102.966	0.000000	1.062507	2.395315
	4.900000	0.015892	0.000000	103	102.966	0.000000	1.062507	2.395421
	4.933333	0.015680	0.000000	103	102.966	0.000000	1.062507	2.395209
	4.966667	0.015998	0.000000	103	102.966	0.000000	1.062507	2.395528
2) DSC 8500 Temperature Scan
	4.983333	0.016222	0.000000	103.004	102.966	0.000000	1.062507	2.395740
	4.988667	0.008476	0.000000	103.083	102.97	0.000000	1.062507	2.387771
	4.994000	0.002273	0.000000	103.162	102.97	0.000000	1.062507	2.366096
	4.999333	0.004853	0.000000	103.241	102.983	0.000000	1.062507	2.348140
	5.004667	0.016313	0.000000	103.32	103.008	0.000000	1.062507	2.340172
	5.010000	0.022046	0.000000	103.4	103.045	0.000000	1.062508	2.340386
	5.015333	0.014754	0.000000	103.483	103.087	0.000000	1.062509	2.344744
	5.020667	-0.007810	0.000000	103.562	103.141	0.000000	1.062509	2.349102
	5.026000	-0.043387	0.000000	103.641	103.204	0.000000	1.062510	2.350592
	5.031333	-0.087585	0.000000	103.72	103.27	0.000000	1.062511	2.347300
	5.036667	-0.134615	0.000000	103.8	103.341	0.000000	1.062512	2.339015
	5.042000	-0.179382	0.000000	103.879	103.412	0.000000	1.062513	2.326373
	5.047333	-0.217798	0.000000	103.962	103.487	0.000000	1.062515	2.311075
	5.052667	-0.247687	0.000000	104.041	103.554	0.000000	1.062516	2.294821
	5.058000	-0.267834	0.000000	104.12	103.629	0.000000	1.062517	2.279948
	5.063333	-0.278874	0.000000	104.2	103.712	0.000000	1.062518	2.268157
	5.068667	-0.281490	0.000000	104.279	103.787	0.000000	1.062519	2.261359
	5.074000	-0.277814	0.000000	104.362	103.87	0.000000	1.062520	2.260193
	5.079333	-0.268868	0.000000	104.441	103.95	0.000000	1.062522	2.266040
	5.084667	-0.256488	0.000000	104.52	104.029	0.000000	1.062523	2.278899
	5.090000	-0.242083	0.000000	104.6	104.104	0.000000	1.062524	2.298452
	5.095333	-0.226927	0.000000	104.679	104.183	0.000000	1.062525	2.323955
	5.100667	-0.211677	0.000000	104.758	104.262	0.000000	1.062526	2.354771
	5.106000	-0.196843	0.000000	104.841	104.345	0.000000	1.062527	2.390156
	5.111333	-0.183106	0.000000	104.92	104.425	0.000000	1.062529	2.428941
	5.116667	-0.170307	0.000000	105	104.504	0.000000	1.062530	2.470488
	5.122000	-0.158602	0.000000	105.079	104.579	0.000000	1.062531	2.513736
	5.127333	-0.147685	0.000000	105.158	104.662	0.000000	1.062532	2.558046
	5.132667	-0.137762	0.000000	105.237	104.741	0.000000	1.062533	2.602357
	5.138000	-0.128910	0.000000	105.32	104.82	0.000000	1.062535	2.645924
	5.143333	-0.121259	0.000000	105.4	104.895	0.000000	1.062536	2.688215
	5.148667	-0.114629	0.000000	105.479	104.979	0.000000	1.062537	2.728807
	5.154000	-0.108494	0.000000	105.558	105.058	0.000000	1.062538	2.767912
	5.159333	-0.103246	0.000000	105.637	105.133	0.000000	1.062539	2.804785
	5.164667	-0.098794	0.000000	105.716	105.212	0.000000	1.062540	2.839321
	5.170000	-0.094871	0.000000	105.8	105.295	0.000000	1.062542	2.871625
	5.175333	-0.091386	0.000000	105.879	105.375	0.000000	1.062543	2.901698
	5.180667	-0.088546	0.000000	105.958	105.454	0.000000	1.062544	2.929328
	5.186000	-0.086012	0.000000	106.037	105.537	0.000000	1.062545	2.954832
	5.191333	-0.084079	0.000000	106.116	105.616	0.000000	1.062547	2.977999
	5.196667	-0.082454	0.000000	106.195	105.7	0.000000	1.062548	2.999147
	5.202000	-0.081017	0.000000	106.279	105.779	0.000000	1.062549	3.018489
	5.207333	-0.079907	0.000000	106.358	105.858	0.000000	1.062550	3.035918
	5.212667	-0.079264	0.000000	106.437	105.933	0.000000	1.062551	3.051435
	5.218000	-0.079085	0.000000	106.516	106.012	0.000000	1.062553	3.065145
	5.223333	-0.078753	0.000000	106.595	106.095	0.000000	1.062554	3.077687
	5.228667	-0.078366	0.000000	106.675	106.175	0.000000	1.062555	3.089166
	5.234000	-0.078473	0.000000	106.758	106.254	0.000000	1.062556	3.099051
	5.239333	-0.078630	0.000000	106.837	106.329	0.000000	1.062557	3.107980
	5.244667	-0.078593	0.000000	106.916	106.412	0.000000	1.062559	3.116165
	5.250000	-0.078290	0.000000	106.995	106.487	0.000000	1.062560	3.123819
	5.255333	-0.077700	0.000000	107.075	106.57	0.000000	1.062561	3.131048
	5.260667	-0.076819	0.000000	107.154	106.65	0.000000	1.062562	3.137852
	5.266000	-0.075968	0.000000	107.237	106.733	0.000000	1.062563	3.144019
	5.271333	-0.075604	0.000000	107.316	106.812	0.000000	1.062565	3.149123
	5.276667	-0.075178	0.000000	107.395	106.891	0.000000	1.062566	3.153801
	5.282000	-0.075558	0.000000	107.475	106.97	0.000000	1.062567	3.157205
	5.287333	-0.075879	0.000000	107.554	107.054	0.000000	1.062568	3.160290
	5.292667	-0.076363	0.000000	107.633	107.133	0.000000	1.062569	3.162844
	5.298000	-0.077347	0.000000	107.716	107.212	0.000000	1.062571	3.164548
	5.303333	-0.078395	0.000000	107.795	107.291	0.000000	1.062572	3.165932
	5.308667	-0.079474	0.000000	107.875	107.375	0.000000	1.062573	3.166999
	5.314000	-0.080271	0.000000	107.954	107.45	0.000000	1.062574	3.168065
	5.319333	-0.081116	0.000000	108.033	107.533	0.000000	1.062575	3.168919
	5.324667	-0.081470	0.000000	108.112	107.608	0.000000	1.062576	3.170091
	5.330000	-0.082034	0.000000	108.195	107.687	0.000000	1.062578	3.170838
[...]
	56.8333	-0.704224	0.000000	303	302.954	0.000000	1.065513	0.839518
	56.8533	-0.703474	0.000000	303	302.958	0.000000	1.065513	0.839198
	56.8733	-0.702783	0.000000	303	302.954	0.000000	1.065513	0.838985
	56.8933	-0.702782	0.000000	303	302.954	0.000000	1.065513	0.838452
	56.9133	-0.702889	0.000000	303	302.954	0.000000	1.065513	0.838345
	56.9333	-0.703954	0.000000	303	302.954	0.000000	1.065513	0.837280
	56.9533	-0.703847	0.000000	303	302.954	0.000000	1.065513	0.837386
	56.9733	-0.703741	0.000000	303	302.954	0.000000	1.065513	0.837493
	56.9933	-0.704380	0.000000	303	302.958	0.000000	1.065513	0.836854
	57.0133	-0.705233	0.000000	303	302.954	0.000000	1.065513	0.836001
	57.0333	-0.705552	0.000000	303	302.958	0.000000	1.065513	0.835682
	57.0533	-0.705552	0.000000	303	302.958	0.000000	1.065513	0.835682
	57.0733	-0.705872	0.000000	303	302.958	0.000000	1.065513	0.835362
	57.0933	-0.705659	0.000000	303	302.958	0.000000	1.065513	0.835575
	57.1133	-0.705978	0.000000	303	302.954	0.000000	1.065513	0.835255
	57.1333	-0.706192	0.000000	303	302.954	0.000000	1.065513	0.835042
	57.1533	-0.706511	0.000000	303	302.958	0.000000	1.065513	0.834723
	57.1733	-0.706831	0.000000	303	302.954	0.000000	1.065513	0.834403
	57.1933	-0.706192	0.000000	303	302.954	0.000000	1.065513	0.835042
	57.2133	-0.706831	0.000000	303	302.954	0.000000	1.065513	0.834403
	57.2333	-0.707364	0.000000	303	302.958	0.000000	1.065513	0.833870
	57.2533	-0.707151	0.000000	303	302.958	0.000000	1.065513	0.834083
	57.2733	-0.707257	0.000000	303	302.954	0.000000	1.065513	0.833977
	57.2933	-0.707151	0.000000	303	302.958	0.000000	1.065513	0.834083
	57.3133	-0.707151	0.000000	303	302.954	0.000000	1.065513	0.834083
	57.3333	-0.707364	0.000000	303	302.958	0.000000	1.065513	0.833870
	57.3533	-0.707790	0.000000	303	302.958	0.000000	1.065513	0.833444
	57.3733	-0.707896	0.000000	303	302.954	0.000000	1.065513	0.833338
	57.3933	-0.707683	0.000000	303	302.954	0.000000	1.065513	0.833551
	57.4133	-0.707896	0.000000	303	302.958	0.000000	1.065513	0.833338
	57.4333	-0.708003	0.000000	303	302.958	0.000000	1.065513	0.833231
	57.4533	-0.708216	0.000000	303	302.954	0.000000	1.065513	0.833018
	57.4733	-0.708109	0.000000	303	302.958	0.000000	1.065513	0.833124
	57.4933	-0.708323	0.000000	303	302.958	0.000000	1.065513	0.832911
	57.5133	-0.707896	0.000000	303	302.954	0.000000	1.065513	0.833338
	57.5333	-0.708536	0.000000	303	302.954	0.000000	1.065513	0.832698
	57.5533	-0.708323	0.000000	303	302.958	0.000000	1.065513	0.832911
	57.5733	-0.708216	0.000000	303	302.958	0.000000	1.065513	0.833018
	57.5933	-0.708429	0.000000	303	302.958	0.000000	1.065513	0.832805
	57.6133	-0.709068	0.000000	303	302.958	0.000000	1.065513	0.832166
	57.6333	-0.709708	0.000000	303	302.958	0.000000	1.065513	0.831526
	57.6533	-0.709814	0.000000	303	302.958	0.000000	1.065513	0.831420
	57.6733	-0.709708	0.000000	303	302.958	0.000000	1.065513	0.831526
	57.6933	-0.710240	0.000000	303	302.958	0.000000	1.065513	0.830993
	57.7133	-0.710560	0.000000	303	302.954	0.000000	1.065513	0.830674
	57.7333	-0.710667	0.000000	303	302.954	0.000000	1.065513	0.830567
	57.7533	-0.710347	0.000000	303	302.958	0.000000	1.065513	0.830887
	57.7733	-0.710347	0.000000	303	302.954	0.000000	1.065513	0.830887
	57.7933	-0.709814	0.000000	303	302.954	0.000000	1.065513	0.831420
	57.8133	-0.709708	0.000000	303	302.958	0.000000	1.065513	0.831526
	57.8333	-0.709601	0.000000	303	302.954	0.000000	1.065513	0.831633
	57.8533	-0.708642	0.000000	303	302.958	0.000000	1.065513	0.832592
	57.8733	-0.708642	0.000000	303	302.958	0.000000	1.065513	0.832592
	57.8933	-0.708749	0.000000	303	302.954	0.000000	1.065513	0.832485
	57.9133	-0.707790	0.000000	303	302.958	0.000000	1.065513	0.833444
	57.9333	-0.707577	0.000000	303	302.958	0.000000	1.065513	0.833657
	57.9533	-0.707364	0.000000	303	302.958	0.000000	1.065513	0.833870
	57.9733	-0.707683	0.000000	303	302.958	0.000000	1.065513	0.833551
	57.9933	-0.707577	0.000000	303	302.954	0.000000	1.065513	0.833657
	58.0133	-0.707257	0.000000	303	302.954	0.000000	1.065513	0.833977
	58.0333	-0.704274	0.000000	303	302.954	0.000000	1.065513	0.836960
	58.0533	-0.703528	0.000000	303	302.954	0.000000	1.065513	0.837706
	58.0733	-0.703208	0.000000	303	302.958	0.000000	1.065513	0.838026
	58.0933	-0.702675	0.000000	303	302.958	0.000000	1.065513	0.838559
	58.1133	-0.702569	0.000000	303	302.958	0.000000	1.065513	0.838665
	58.1333	-0.702462	0.000000	303	302.958	0.000000	1.065513	0.838772
	58.1533	-0.702249	0.000000	303	302.954	0.000000	1.065513	0.838985
	58.1733	-0.701290	0.000000	303	302.958	0.000000	1.065513	0.839944
	58.1933	-0.700971	0.000000	303	302.958	0.000000	1.065513	0.840263
	58.2133	-0.700331	0.000000	303	302.954	0.000000	1.065513	0.840903
	58.2333	-0.699692	0.000000	303	302.958	0.000000	1.065513	0.841542
	58.2533	-0.700012	0.000000	303	302.958	0.000000	1.065513	0.841222
	58.2733	-0.699479	0.000000	303	302.958	0.000000	1.065513	0.841755
	58.2933	-0.699266	0.000000	303	302.954	0.000000	1.065513	0.841968
	58.3133	-0.699692	0.000000	303	302.954	0.000000	1.065513	0.841542
	58.3333	-0.699585	0.000000	303	302.958	0.000000	1.065513	0.841649
	58.3533	-0.699585	0.000000	303	302.958	0.000000	1.065513	0.841649
	58.3733	-0.699692	0.000000	303	302.954	0.000000	1.065513	0.841542
	58.3933	-0.699585	0.000000	303	302.958	0.000000	1.065513	0.841649
	58.4133	-0.699905	0.000000	303	302.958	0.000000	1.065513	0.841329
	58.4333	-0.700012	0.000000	303	302.954	0.000000	1.065513	0.841222
	58.4533	-0.700225	0.000000	303	302.958	0.000000	1.065513	0.841009
	58.4733	-0.700544	0.000000	303	302.958	0.000000	1.065513	0.840690
	58.4933	-0.700757	0.000000	303	302.958	0.000000	1.065513	0.840477
	58.5133	-0.701077	0.000000	303	302.958	0.000000	1.065513	0.840157
	58.5333	-0.701610	0.000000	303	302.958	0.000000	1.065513	0.839624
	58.5533	-0.701610	0.000000	303	302.958	0.000000	1.065513	0.839624
	58.5733	-0.702356	0.000000	303	302.958	0.000000	1.065513	0.838878
	58.5933	-0.701929	0.000000	303	302.962	0.000000	1.065513	0.839305
	58.6133	-0.702569	0.000000	303	302.954	0.000000	1.065513	0.838665
	58.6333	-0.703208	0.000000	303	302.958	0.000000	1.065513	0.838026
	58.6533	-0.703954	0.000000	303	302.958	0.000000	1.065513	0.837280
	58.6733	-0.704593	0.000000	303	302.958	0.000000	1.065513	0.836641
	58.6933	-0.704487	0.000000	303	302.954	0.000000	1.065513	0.836747
	58.7133	-0.704806	0.000000	303	302.958	0.000000	1.065513	0.836428
	58.7333	-0.705126	0.000000	303	302.954	0.000000	1.065513	0.836108
	58.7533	-0.705446	0.000000	303	302.958	0.000000	1.065513	0.835788
	58.7733	-0.705339	0.000000	303	302.958	0.000000	1.065513	0.835895
	58.7933	-0.705765	0.000000	303	302.958	0.000000	1.065513	0.835469
	58.8133	-0.706085	0.000000	303	302.954	0.000000	1.065513	0.835149
	58.8333	-0.706724	0.000000	303	302.954	0.000000	1.065513	0.834510
	58.8533	-0.706831	0.000000	303	302.954	0.000000	1.065513	0.834403
	58.8733	-0.707044	0.000000	303	302.958	0.000000	1.065513	0.834190
	58.8933	-0.707044	0.000000	303	302.958	0.000000	1.065513	0.834190
	58.9133	-0.707683	0.000000	303	302.958	0.000000	1.065513	0.833551
	58.9333	-0.708003	0.000000	303	302.958	0.000000	1.065513	0.833231
	58.9533	-0.708109	0.000000	303	302.958	0.000000	1.065513	0.833124
	58.9733	-0.708109	0.000000	303	302.958	0.000000	1.065513	0.833124
	58.9933	-0.707683	0.000000	303	302.954	0.000000	1.065513	0.833551
	59.0133	-0.708216	0.000000	303	302.958	0.000000	1.065513	0.833018
	59.0333	-0.708749	0.000000	303	302.958	0.000000	1.065513	0.832485
	59.0533	-0.709388	0.000000	303	302.958	0.000000	1.065513	0.831846
	59.0733	-0.709601	0.000000	303	302.954	0.000000	1.065513	0.831633
	59.0933	-0.710134	0.000000	303	302.958	0.000000	1.065513	0.831100
	59.1133	-0.709495	0.000000	303	302.954	0.000000	1.065513	0.831739
	59.1333	-0.709921	0.000000	303	302.958	0.000000	1.065513	0.831313
	59.1533	-0.710347	0.000000	303	302.958	0.000000	1.065513	0.830887
	59.1733	-0.710454	0.000000	303	302.958	0.000000	1.065513	0.830780
	59.1933	-0.710454	0.000000	303	302.958	0.000000	1.065513	0.830780
	59.2133	-0.710773	0.000000	303	302.954	0.000000	1.065513	0.830461
	59.2333	-0.710773	0.000000	303	302.958	0.000000	1.065513	0.830461
	59.2533	-0.710773	0.000000	303	302.958	0.000000	1.065513	0.830461
	59.2733	-0.710880	0.000000	303	302.954	0.000000	1.065513	0.830354
	59.2933	-0.711519	0.000000	303	302.958	0.000000	1.065513	0.829715
	59.3133	-0.711413	0.000000	303	302.958	0.000000	1.065513	0.829821
	59.3333	-0.711626	0.000000	303	302.958	0.000000	1.065513	0.829608
	59.3533	-0.711306	0.000000	303	302.958	0.000000	1.065513	0.829928
	59.3733	-0.710454	0.000000	303	302.958	0.000000	1.065513	0.830780
	59.3767	-0.710347	0.000000	303	302.958	0.000000	1.065513	0.830887