File: demo_data/Pt60_100-300-4.txt
Filename:	C:\Program Files (x86)\PerkinElmer\Pyris\data\Pt60_100-300-4.ds8d
Operator ID:
Sample ID:	Pt60
Comment:
Serial Number:
Data Collected:	7/15/2024 2:44:43 PM
Sample Weight:	16.600 mg
Display Weight:	16.600
Validation
Validated:	No
By:
Date:
Calibration Information
Filename:	C:\Program Files (x86)\PerkinElmer\Pyris\Calibrations\Calib100to400_07102024-1.ds8c
Date/Time:	7/11/2024 12:54:01 PM
Initial Conditions
Temperature:	 100.00 °C
Purge Gas:
Purge Gas Rate:
Baseline Filename:
End Condition:	Go To Load
Total Points in Run:	46150
Method Steps:
Pre-Run Actions
Switch the Gas to Nitrogen at 20.0 ml/min
	Action occurs Immediately
Start the Run
	Action occurs Immediately
1)	Hold for 5.0 min at 100.00°C

2)	Heat from 100.00°C to 110.00°C at 15.00°C/min

3)	Hold for 2.0 min at 110.00°C

4)	Heat from 110.00°C to 120.00°C at 15.00°C/min

5)	Hold for 2.0 min at 120.00°C

6)	Heat from 120.00°C to 130.00°C at 15.00°C/min

7)	Hold for 2.0 min at 130.00°C

8)	Heat from 130.00°C to 140.00°C at 15.00°C/min

9)	Hold for 2.0 min at 140.00°C

10)	Heat from 140.00°C to 150.00°C at 15.00°C/min

11)	Hold for 2.0 min at 150.00°C

12)	Heat from 150.00°C to 160.00°C at 15.00°C/min

13)	Hold for 2.0 min at 160.00°C

14)	Heat from 160.00°C to 170.00°C at 15.00°C/min

15)	Hold for 2.0 min at 170.00°C

16)	Heat from 170.00°C to 180.00°C at 15.00°C/min

17)	Hold for 2.0 min at 180.00°C

18)	Heat from 180.00°C to 190.00°C at 15.00°C/min

19)	Hold for 2.0 min at 190.00°C

20)	Heat from 190.00°C to 200.00°C at 15.00°C/min

21)	Hold for 2.0 min at 200.00°C

22)	Heat from 200.00°C to 210.00°C at 15.00°C/min

23)	Hold for 2.0 min at 210.00°C

24)	Heat from 210.00°C to 220.00°C at 15.00°C/min

25)	Hold for 2.0 min at 220.00°C

26)	Heat from 220.00°C to 230.00°C at 15.00°C/min

27)	Hold for 2.0 min at 230.00°C

28)	Heat from 230.00°C to 240.00°C at 15.00°C/min

29)	Hold for 2.0 min at 240.00°C

30)	Heat from 240.00°C to 250.00°C at 15.00°C/min

31)	Hold for 2.0 min at 250.00°C

32)	Heat from 250.00°C to 260.00°C at 15.00°C/min

33)	Hold for 2.0 min at 260.00°C

34)	Heat from 260.00°C to 270.00°C at 15.00°C/min

35)	Hold for 2.0 min at 270.00°C

36)	Heat from 270.00°C to 280.00°C at 15.00°C/min

37)	Hold for 2.0 min at 280.00°C

38)	Heat from 280.00°C to 290.00°C at 15.00°C/min

39)	Hold for 2.0 min at 290.00°C

40)	Heat from 290.00°C to 300.00°C at 15.00°C/min

41)	Hold for 5.0 min at 300.00°C

1) DSC 8500 Isothermal
	Time     	Unsubtracted	Baseline     	Program     	Sample     	Approx.     	Heat Flow     	Uncorrected
	          	Heat Flow     	Heat Flow     	Temperature	Temperature	Gas Flow     	Calibration	Heat Flow
	0.000000	20.7557	0.000000	100	97.808	0.000000	1.062429	22.6794
	0.033333	22.529	0.000000	100	99.512	0.000000	1.062455	16.5553
	0.066667	21.4502	0.000000	100	99.729	0.000000	1.062458	13.8882
	0.100000	20.3776	0.000000	100	99.833	0.000000	1.062460	10.2616
	0.133333	17.0062	0.000000	100	99.895	0.000000	1.062461	7.305691
	0.166667	11.6435	0.000000	100	99.929	0.000000	1.062461	5.355866
	0.200000	7.107793	0.000000	100	99.95	0.000000	1.062461	4.188967
	0.233333	4.217886	0.000000	100	99.958	0.000000	1.062462	3.529710
	0.266667	2.596175	0.000000	100	99.962	0.000000	1.062462	3.170173
	0.300000	1.742453	0.000000	100	99.966	0.000000	1.062462	2.977761
	0.333333	1.303910	0.000000	100	99.97	0.000000	1.062462	2.876403
	0.366667	1.077053	0.000000	100	99.97	0.000000	1.062462	2.822642
	0.400000	0.955841	0.000000	100	99.97	0.000000	1.062462	2.794168
	0.433333	0.894382	0.000000	100	99.97	0.000000	1.062462	2.778975
	0.466667	0.857933	0.000000	100	99.975	0.000000	1.062462	2.770475
	0.500000	0.842033	0.000000	100	99.97	0.000000	1.062462	2.765694
	0.533333	0.839165	0.000000	100	99.975	0.000000	1.062462	2.762826
	0.566667	0.837252	0.000000	100	99.97	0.000000	1.062462	2.760913
	0.600000	0.835553	0.000000	100	99.975	0.000000	1.062462	2.759213
	0.633333	0.834384	0.000000	100	99.975	0.000000	1.062462	2.758044
	0.666667	0.833321	0.000000	100	99.975	0.000000	1.062462	2.756982
	0.700000	0.832365	0.000000	100	99.975	0.000000	1.062462	2.756026
	0.733333	0.831727	0.000000	100	99.97	0.000000	1.062462	2.755388
	0.766667	0.831090	0.000000	100	99.97	0.000000	1.062462	2.754751
	0.800000	0.830453	0.000000	100	99.975	0.000000	1.062462	2.754113
	0.833333	0.829815	0.000000	100	99.975	0.000000	1.062462	2.753476
	0.866667	0.829072	0.000000	100	99.975	0.000000	1.062462	2.752732
	0.900000	0.828859	0.000000	100	99.975	0.000000	1.062462	2.752520
	0.933333	0.828222	0.000000	100	99.975	0.000000	1.062462	2.751882
	0.966667	0.827903	0.000000	100	99.975	0.000000	1.062462	2.751563
	1.000000	0.827690	0.000000	100	99.97	0.000000	1.062462	2.751351
	1.033333	0.827478	0.000000	100	99.975	0.000000	1.062462	2.751138
	1.066667	0.827265	0.000000	100	99.975	0.000000	1.062462	2.750926
	1.100000	0.827053	0.000000	100	99.97	0.000000	1.062462	2.750713
	1.133333	0.827053	0.000000	100	99.975	0.000000	1.062462	2.750714
	1.166667	0.827053	0.000000	100	99.975	0.000000	1.062462	2.750714
	1.200000	0.827053	0.000000	100	99.975	0.000000	1.062462	2.750714
	1.233333	0.827159	0.000000	100	99.97	0.000000	1.062462	2.750820
	1.266667	0.827159	0.000000	100	99.975	0.000000	1.062462	2.750820
	1.300000	0.827478	0.000000	100	99.975	0.000000	1.062462	2.751138
	1.333333	0.827584	0.000000	100	99.97	0.000000	1.062462	2.751245
	1.366667	0.827690	0.000000	100	99.97	0.000000	1.062462	2.751351
	1.400000	0.828115	0.000000	100	99.975	0.000000	1.062462	2.751776
	1.433333	0.828221	0.000000	100	99.97	0.000000	1.062462	2.751882
	1.466667	0.828434	0.000000	100	99.975	0.000000	1.062462	2.752095
	1.500000	0.828222	0.000000	100	99.975	0.000000	1.062462	2.751882
	1.533333	0.827690	0.000000	100	99.975	0.000000	1.062462	2.751351
	1.566667	0.827478	0.000000	100	99.97	0.000000	1.062462	2.751138
	1.600000	0.827478	0.000000	100	99.975	0.000000	1.062462	2.751138
	1.633333	0.827159	0.000000	100	99.975	0.000000	1.062462	2.750820
	1.666667	0.827159	0.000000	100	99.975	0.000000	1.062462	2.750820
	1.700000	0.826840	0.000000	100	99.975	0.000000	1.062462	2.750501
	1.733333	0.826628	0.000000	100	99.975	0.000000	1.062462	2.750289
	1.766667	0.826309	0.000000	100	99.975	0.000000	1.062462	2.749970
	1.800000	0.826309	0.000000	100	99.97	0.000000	1.062462	2.749970
	1.833333	0.826203	0.000000	100	99.97	0.000000	1.062462	2.749863
	1.866667	0.826203	0.000000	100	99.97	0.000000	1.062462	2.749863
	1.900000	0.826309	0.000000	100	99.97	0.000000	1.062462	2.749970
	1.933333	0.826946	0.000000	100	99.97	0.000000	1.062462	2.750607
	1.966667	0.827159	0.000000	100	99.97	0.000000	1.062462	2.750820
	2.000000	0.827690	0.000000	100	99.97	0.000000	1.062462	2.751351
	2.033333	0.827797	0.000000	100	99.975	0.000000	1.062462	2.751457
	2.066667	0.828115	0.000000	100	99.975	0.000000	1.062462	2.751776
	2.100000	0.828222	0.000000	100	99.975	0.000000	1.062462	2.751882
	2.133333	0.828328	0.000000	100	99.975	0.000000	1.062462	2.751988
	2.166667	0.828222	0.000000	100	99.975	0.000000	1.062462	2.751882
	2.200000	0.828115	0.000000	100	99.97	0.000000	1.062462	2.751776
	2.233333	0.828221	0.000000	100	99.97	0.000000	1.062462	2.751882
	2.266667	0.828115	0.000000	100	99.975	0.000000	1.062462	2.751776
	2.300000	0.827796	0.000000	100	99.97	0.000000	1.062462	2.751457
	2.333333	0.827584	0.000000	100	99.97	0.000000	1.062462	2.751245
	2.366667	0.827159	0.000000	100	99.975	0.000000	1.062462	2.750820
	2.400000	0.826946	0.000000	100	99.97	0.000000	1.062462	2.750607
	2.433333	0.826840	0.000000	100	99.97	0.000000	1.062462	2.750501
	2.466667	0.826946	0.000000	100	99.97	0.000000	1.062462	2.750607
	2.500000	0.827159	0.000000	100	99.975	0.000000	1.062462	2.750820
	2.533333	0.827371	0.000000	100	99.97	0.000000	1.062462	2.751032
	2.566667	0.827584	0.000000	100	99.97	0.000000	1.062462	2.751245
	2.600000	0.828009	0.000000	100	99.97	0.000000	1.062462	2.751670
	2.633333	0.828009	0.000000	100	99.975	0.000000	1.062462	2.751670
	2.666667	0.828328	0.000000	100	99.97	0.000000	1.062462	2.751988
	2.700000	0.828646	0.000000	100	99.97	0.000000	1.062462	2.752307
	2.733333	0.829284	0.000000	100	99.97	0.000000	1.062462	2.752944
	2.766667	0.829709	0.000000	100	99.97	0.000000	1.062462	2.753369
	2.800000	0.829815	0.000000	100	99.97	0.000000	1.062462	2.753476
	2.833333	0.830453	0.000000	100	99.97	0.000000	1.062462	2.754113
	2.866667	0.830771	0.000000	100	99.97	0.000000	1.062462	2.754432
	2.900000	0.831303	0.000000	100	99.975	0.000000	1.062462	2.754963
	2.933333	0.831621	0.000000	100	99.975	0.000000	1.062462	2.755282
	2.966667	0.831834	0.000000	100	99.975	0.000000	1.062462	2.755495
	3.000000	0.832152	0.000000	100	99.97	0.000000	1.062462	2.755813
	3.033333	0.832259	0.000000	100	99.97	0.000000	1.062462	2.755919
	3.066667	0.832046	0.000000	100	99.97	0.000000	1.062462	2.755707
	3.100000	0.832046	0.000000	100	99.97	0.000000	1.062462	2.755707
	3.133333	0.831940	0.000000	100	99.975	0.000000	1.062462	2.755601
	3.166667	0.831727	0.000000	100	99.97	0.000000	1.062462	2.755388
	3.200000	0.831515	0.000000	100	99.97	0.000000	1.062462	2.755176
	3.233333	0.831834	0.000000	100	99.97	0.000000	1.062462	2.755494
	3.266667	0.831834	0.000000	100	99.97	0.000000	1.062462	2.755494
	3.300000	0.831515	0.000000	100	99.975	0.000000	1.062462	2.755176
	3.333333	0.831302	0.000000	100	99.97	0.000000	1.062462	2.754963
	3.366667	0.831409	0.000000	100	99.975	0.000000	1.062462	2.755070
	3.400000	0.831090	0.000000	100	99.97	0.000000	1.062462	2.754751
	3.433333	0.830771	0.000000	100	99.975	0.000000	1.062462	2.754432
	3.466667	0.830453	0.000000	100	99.975	0.000000	1.062462	2.754113
	3.500000	0.830559	0.000000	100	99.975	0.000000	1.062462	2.754220
	3.533333	0.830240	0.000000	100	99.975	0.000000	1.062462	2.753901
	3.566667	0.830346	0.000000	100	99.97	0.000000	1.062462	2.754007
	3.600000	0.830346	0.000000	100	99.97	0.000000	1.062462	2.754007
	3.633333	0.830134	0.000000	100	99.97	0.000000	1.062462	2.753794
	3.666667	0.829815	0.000000	100	99.97	0.000000	1.062462	2.753476
	3.700000	0.829921	0.000000	100	99.975	0.000000	1.062462	2.753582
	3.733333	0.829709	0.000000	100	99.97	0.000000	1.062462	2.753369
	3.766667	0.829071	0.000000	100	99.97	0.000000	1.062462	2.752732
	3.800000	0.828434	0.000000	100	99.975	0.000000	1.062462	2.752095
	3.833333	0.827796	0.000000	100	99.97	0.000000	1.062462	2.751457
	3.866667	0.827371	0.000000	100	99.97	0.000000	1.062462	2.751032
	3.900000	0.826946	0.000000	100	99.97	0.000000	1.062462	2.750607
	3.933333	0.826521	0.000000	100	99.97	0.000000	1.062462	2.750182
	3.966667	0.826203	0.000000	100	99.97	0.000000	1.062462	2.749863
	4.000000	0.825884	0.000000	100	99.97	0.000000	1.062462	2.749545
	4.033333	0.825672	0.000000	100	99.975	0.000000	1.062462	2.749332
	4.066667	0.825459	0.000000	100	99.97	0.000000	1.062462	2.749120
	4.100000	0.825140	0.000000	100	99.97	0.000000	1.062462	2.748801
	4.133333	0.824715	0.000000	100	99.97	0.000000	1.062462	2.748376
	4.166667	0.824609	0.000000	100	99.97	0.000000	1.062462	2.748270
	4.200000	0.824290	0.000000	100	99.97	0.000000	1.062462	2.747951
	4.233333	0.824609	0.000000	100	99.97	0.000000	1.062462	2.748270
	4.266667	0.825140	0.000000	100	99.97	0.000000	1.062462	2.748801
	4.300000	0.825565	0.000000	100	99.97	0.000000	1.062462	2.749226
	4.333333	0.825990	0.000000	100	99.97	0.000000	1.062462	2.749651
	4.366667	0.826309	0.000000	100	99.97	0.000000	1.062462	2.749970
	4.400000	0.826628	0.000000	100	99.97	0.000000	1.062462	2.750288
	4.433333	0.826946	0.000000	100	99.97	0.000000	1.062462	2.750607
	4.466667	0.827159	0.000000	100	99.97	0.000000	1.062462	2.750820
	4.500000	0.827265	0.000000	100	99.97	0.000000	1.062462	2.750926
	4.533333	0.827371	0.000000	100	99.97	0.000000	1.062462	2.751032
	4.566667	0.827159	0.000000	100	99.97	0.000000	1.062462	2.750820
	4.600000	0.827159	0.000000	100	99.97	0.000000	1.062462	2.750820
	4.633333	0.827478	0.000000	100	99.97	0.000000	1.062462	2.751138
	4.666667	0.827371	0.000000	100	99.97	0.000000	1.062462	2.751032
	4.700000	0.827159	0.000000	100	99.97	0.000000	1.062462	2.750820
	4.733333	0.826840	0.000000	100	99.97	0.000000	1.062462	2.750501
	4.766667	0.826628	0.000000	100	99.97	0.000000	1.062462	2.750288
	4.800000	0.826946	0.000000	100	99.97	0.000000	1.062462	2.750607
	4.833333	0.827265	0.000000	100	99.97	0.000000	1.062462	2.750926
	4.866667	0.827371	0.000000	100	99.97	0.000000	1.062462	2.751032
	4.900000	0.827371	0.000000	100	99.97	0.000000	1.062462	2.751032
	4.933333	0.827584	0.000000	100	99.97	0.000000	1.062462	2.751245
	4.966667	0.827796	0.000000	100	99.97	0.000000	1.062462	2.751457
2) DSC 8500 Temperature Scan
	4.983333	0.828156	0.000000	100.004	99.97	0.000000	1.062462	2.751776
	4.988667	0.823130	0.000000	100.083	99.975	0.000000	1.062462	2.745932
	4.994000	0.827647	0.000000	100.162	99.975	0.000000	1.062462	2.730314
	4.999333	0.845703	0.000000	100.241	99.987	0.000000	1.062462	2.719053
	5.004667	0.874004	0.000000	100.32	100.008	0.000000	1.062462	2.717566
	5.010000	0.896715	0.000000	100.4	100.05	0.000000	1.062463	2.725642
	5.015333	0.908997	0.000000	100.483	100.091	0.000000	1.062464	2.742112
	5.020667	0.913610	0.000000	100.562	100.145	0.000000	1.062464	2.766338
	5.026000	0.917114	0.000000	100.641	100.208	0.000000	1.062465	2.797471
	5.031333	0.928547	0.000000	100.72	100.27	0.000000	1.062466	2.835616
	5.036667	0.955985	0.000000	100.8	100.341	0.000000	1.062467	2.880774
	5.042000	1.004282	0.000000	100.879	100.412	0.000000	1.062468	2.932519
	5.047333	1.074454	0.000000	100.962	100.487	0.000000	1.062469	2.989895
	5.052667	1.164323	0.000000	101.041	100.558	0.000000	1.062471	3.051947
	5.058000	1.269828	0.000000	101.12	100.645	0.000000	1.062472	3.118142
	5.063333	1.384211	0.000000	101.2	100.72	0.000000	1.062473	3.186675
	5.068667	1.501748	0.000000	101.279	100.791	0.000000	1.062474	3.257120
	5.074000	1.616464	0.000000	101.358	100.87	0.000000	1.062475	3.328416
	5.079333	1.723462	0.000000	101.441	100.95	0.000000	1.062476	3.399500
	5.084667	1.819008	0.000000	101.52	101.025	0.000000	1.062478	3.469520
	5.090000	1.900891	0.000000	101.6	101.104	0.000000	1.062479	3.537735
	5.095333	1.967857	0.000000	101.679	101.183	0.000000	1.062480	3.603294
	5.100667	2.020472	0.000000	101.758	101.266	0.000000	1.062481	3.666410
	5.106000	2.059091	0.000000	101.837	101.341	0.000000	1.062482	3.726444
	5.111333	2.084980	0.000000	101.92	101.42	0.000000	1.062483	3.783185
	5.116667	2.099836	0.000000	102	101.504	0.000000	1.062485	3.836632
	5.122000	2.105778	0.000000	102.079	101.583	0.000000	1.062486	3.887105
	5.127333	2.104284	0.000000	102.158	101.666	0.000000	1.062487	3.934390
	5.132667	2.096648	0.000000	102.237	101.745	0.000000	1.062488	3.978169
	5.138000	2.084574	0.000000	102.316	101.82	0.000000	1.062489	4.018867
	5.143333	2.069010	0.000000	102.4	101.904	0.000000	1.062491	4.056165
	5.148667	2.051315	0.000000	102.479	101.979	0.000000	1.062492	4.090594
	5.154000	2.032592	0.000000	102.558	102.062	0.000000	1.062493	4.122473
	5.159333	2.013390	0.000000	102.637	102.141	0.000000	1.062494	4.151803
	5.164667	1.993742	0.000000	102.716	102.216	0.000000	1.062495	4.178263
	5.170000	1.975080	0.000000	102.795	102.295	0.000000	1.062497	4.203024
	5.175333	1.957001	0.000000	102.879	102.375	0.000000	1.062498	4.225554
	5.180667	1.939684	0.000000	102.958	102.458	0.000000	1.062499	4.246065
	5.186000	1.923368	0.000000	103.037	102.533	0.000000	1.062500	4.264663
	5.191333	1.907907	0.000000	103.116	102.616	0.000000	1.062501	4.281243
	5.196667	1.893968	0.000000	103.195	102.695	0.000000	1.062503	4.296654
	5.202000	1.881270	0.000000	103.275	102.779	0.000000	1.062504	4.310685
	5.207333	1.869765	0.000000	103.358	102.854	0.000000	1.062505	4.323439
	5.212667	1.858814	0.000000	103.437	102.937	0.000000	1.062506	4.334494
	5.218000	1.849000	0.000000	103.516	103.016	0.000000	1.062507	4.344593
	5.223333	1.839914	0.000000	103.595	103.1	0.000000	1.062509	4.353417
	5.228667	1.831880	0.000000	103.675	103.175	0.000000	1.062510	4.361497
	5.234000	1.824540	0.000000	103.754	103.254	0.000000	1.062511	4.368620
	5.239333	1.818530	0.000000	103.837	103.341	0.000000	1.062512	4.375532
	5.244667	1.813022	0.000000	103.916	103.416	0.000000	1.062513	4.381593
	5.250000	1.808528	0.000000	103.995	103.5	0.000000	1.062515	4.387442
	5.255333	1.804581	0.000000	104.075	103.575	0.000000	1.062516	4.392653
	5.260667	1.801759	0.000000	104.154	103.654	0.000000	1.062517	4.397971
	5.266000	1.799206	0.000000	104.233	103.729	0.000000	1.062518	4.402650
	5.271333	1.797143	0.000000	104.316	103.812	0.000000	1.062519	4.406906
	5.276667	1.795545	0.000000	104.395	103.891	0.000000	1.062521	4.410842
	5.282000	1.794070	0.000000	104.475	103.975	0.000000	1.062522	4.414247
	5.287333	1.793053	0.000000	104.554	104.054	0.000000	1.062523	4.417546
	5.292667	1.791988	0.000000	104.633	104.137	0.000000	1.062524	4.420207
	5.298000	1.791026	0.000000	104.712	104.212	0.000000	1.062525	4.422550
	5.303333	1.790018	0.000000	104.795	104.295	0.000000	1.062527	4.424361
	5.308667	1.788927	0.000000	104.875	104.375	0.000000	1.062528	4.425747
	5.314000	1.788155	0.000000	104.954	104.454	0.000000	1.062529	4.427134
	5.319333	1.787494	0.000000	105.033	104.533	0.000000	1.062530	4.428307
	5.324667	1.787120	0.000000	105.112	104.612	0.000000	1.062531	4.429481
	5.330000	1.786608	0.000000	105.191	104.695	0.000000	1.062533	4.430230
	5.335333	1.786408	0.000000	105.275	104.775	0.000000	1.062534	4.431085
	5.340667	1.786149	0.000000	105.354	104.854	0.000000	1.062535	4.431728
	5.346000	1.786068	0.000000	105.433	104.929	0.000000	1.062536	4.432370
[...]
	57.0067	4.475289	0.000000	300	299.975	0.000000	1.065468	2.808574
	57.04	4.477633	0.000000	300	299.97	0.000000	1.065468	2.810917
	57.0733	4.478059	0.000000	300	299.966	0.000000	1.065468	2.811343
	57.1067	4.480510	0.000000	300	299.97	0.000000	1.065468	2.813794
	57.14	4.482108	0.000000	300	299.975	0.000000	1.065468	2.815393
	57.1733	4.482534	0.000000	300	299.97	0.000000	1.065468	2.815819
	57.2067	4.483813	0.000000	300	299.975	0.000000	1.065468	2.817097
	57.24	4.484452	0.000000	300	299.97	0.000000	1.065468	2.817736
	57.2733	4.485518	0.000000	300	299.97	0.000000	1.065468	2.818802
	57.3067	4.486370	0.000000	300	299.97	0.000000	1.065468	2.819654
	57.34	4.486903	0.000000	300	299.975	0.000000	1.065468	2.820187
	57.3733	4.487009	0.000000	300	299.97	0.000000	1.065468	2.820294
	57.4067	4.488075	0.000000	300	299.966	0.000000	1.065468	2.821359
	57.44	4.489566	0.000000	300	299.97	0.000000	1.065468	2.822851
	57.4733	4.490099	0.000000	300	299.97	0.000000	1.065468	2.823383
	57.5067	4.491804	0.000000	300	299.97	0.000000	1.065468	2.825088
	57.54	4.492763	0.000000	300	299.97	0.000000	1.065468	2.826047
	57.5733	4.493189	0.000000	300	299.97	0.000000	1.065468	2.826473
	57.6067	4.492976	0.000000	300	299.97	0.000000	1.065468	2.826260
	57.64	4.493722	0.000000	300	299.97	0.000000	1.065468	2.827006
	57.6733	4.494574	0.000000	300	299.975	0.000000	1.065468	2.827859
	57.7067	4.495640	0.000000	300	299.97	0.000000	1.065468	2.828924
	57.74	4.496385	0.000000	300	299.97	0.000000	1.065468	2.829670
	57.7733	4.497131	0.000000	300	299.97	0.000000	1.065468	2.830416
	57.8067	4.497025	0.000000	300	299.97	0.000000	1.065468	2.830309
	57.84	4.497451	0.000000	300	299.975	0.000000	1.065468	2.830735
	57.8733	4.497557	0.000000	300	299.966	0.000000	1.065468	2.830842
	57.9067	4.497770	0.000000	300	299.97	0.000000	1.065468	2.831055
	57.94	4.497238	0.000000	300	299.97	0.000000	1.065468	2.830522
	57.9733	4.496918	0.000000	300	299.975	0.000000	1.065468	2.830203
	58.0067	4.497238	0.000000	300	299.966	0.000000	1.065468	2.830522
	58.04	4.497984	0.000000	300	299.97	0.000000	1.065468	2.831268
	58.0733	4.496385	0.000000	300	299.97	0.000000	1.065468	2.829670
	58.1067	4.495640	0.000000	300	299.975	0.000000	1.065468	2.828924
	58.14	4.495213	0.000000	300	299.97	0.000000	1.065468	2.828498
	58.1733	4.495426	0.000000	300	299.97	0.000000	1.065468	2.828711
	58.2067	4.495959	0.000000	300	299.97	0.000000	1.065468	2.829243
	58.24	4.496279	0.000000	300	299.97	0.000000	1.065468	2.829563
	58.2733	4.496172	0.000000	300	299.97	0.000000	1.065468	2.829457
	58.3067	4.497025	0.000000	300	299.97	0.000000	1.065468	2.830309
	58.34	4.497131	0.000000	300	299.97	0.000000	1.065468	2.830416
	58.3733	4.497025	0.000000	300	299.97	0.000000	1.065468	2.830309
	58.4067	4.497984	0.000000	300	299.97	0.000000	1.065468	2.831268
	58.44	4.497238	0.000000	300	299.97	0.000000	1.065468	2.830522
	58.4733	4.497131	0.000000	300	299.97	0.000000	1.065468	2.830416
	58.5067	4.497131	0.000000	300	299.975	0.000000	1.065468	2.830416
	58.54	4.497131	0.000000	300	299.966	0.000000	1.065468	2.830415
	58.5733	4.496812	0.000000	300	299.975	0.000000	1.065468	2.830096
	58.6067	4.496705	0.000000	300	299.97	0.000000	1.065468	2.829989
	58.64	4.496705	0.000000	300	299.97	0.000000	1.065468	2.829989
	58.6733	4.496599	0.000000	300	299.975	0.000000	1.065468	2.829883
	58.7067	4.496172	0.000000	300	299.97	0.000000	1.065468	2.829457
	58.74	4.496812	0.000000	300	299.97	0.000000	1.065468	2.830096
	58.7733	4.496386	0.000000	300	299.975	0.000000	1.065468	2.829670
	58.8067	4.495640	0.000000	300	299.975	0.000000	1.065468	2.828924
	58.84	4.495853	0.000000	300	299.97	0.000000	1.065468	2.829137
	58.8733	4.494361	0.000000	300	299.975	0.000000	1.065468	2.827645
	58.9067	4.494681	0.000000	300	299.97	0.000000	1.065468	2.827965
	58.94	4.495107	0.000000	300	299.975	0.000000	1.065468	2.828391
	58.9733	4.494574	0.000000	300	299.97	0.000000	1.065468	2.827858
	59.0067	4.494468	0.000000	300	299.97	0.000000	1.065468	2.827752
	59.04	4.494042	0.000000	300	299.975	0.000000	1.065468	2.827326
	59.0733	4.493828	0.000000	300	299.966	0.000000	1.065468	2.827112
	59.1067	4.493296	0.000000	300	299.97	0.000000	1.065468	2.826580
	59.14	4.492230	0.000000	300	299.97	0.000000	1.065468	2.825514
	59.1733	4.492337	0.000000	300	299.97	0.000000	1.065468	2.825621
	59.2067	4.492443	0.000000	300	299.975	0.000000	1.065468	2.825728
	59.24	4.492124	0.000000	300	299.975	0.000000	1.065468	2.825408
	59.2733	4.492443	0.000000	300	299.975	0.000000	1.065468	2.825728
	59.3067	4.492017	0.000000	300	299.975	0.000000	1.065468	2.825301
	59.34	4.491910	0.000000	300	299.97	0.000000	1.065468	2.825195
	59.3733	4.491698	0.000000	300	299.975	0.000000	1.065468	2.824982
	59.4067	4.492017	0.000000	300	299.975	0.000000	1.065468	2.825301
	59.44	4.491804	0.000000	300	299.97	0.000000	1.065468	2.825088
	59.4733	4.492017	0.000000	300	299.97	0.000000	1.065468	2.825301
	59.5067	4.491484	0.000000	300	299.97	0.000000	1.065468	2.824769
	59.54	4.491165	0.000000	300	299.97	0.000000	1.065468	2.824449
	59.5733	4.490738	0.000000	300	299.97	0.000000	1.065468	2.824023
	59.6067	4.491271	0.000000	300	299.966	0.000000	1.065468	2.824555
	59.64	4.490952	0.000000	300	299.975	0.000000	1.065468	2.824236
	59.6733	4.491165	0.000000	300	299.97	0.000000	1.065468	2.824449
	59.7067	4.492124	0.000000	300	299.975	0.000000	1.065468	2.825408
	59.74	4.492550	0.000000	300	299.97	0.000000	1.065468	2.825834
	59.7733	4.492869	0.000000	300	299.97	0.000000	1.065468	2.826154
	59.8067	4.492230	0.000000	300	299.97	0.000000	1.065468	2.825514
	59.84	4.492550	0.000000	300	299.975	0.000000	1.065468	2.825834
	59.8733	4.492763	0.000000	300	299.975	0.000000	1.065468	2.826047
	59.9067	4.492443	0.000000	300	299.97	0.000000	1.065468	2.825727
	59.94	4.491804	0.000000	300	299.975	0.000000	1.065468	2.825088
	59.9733	4.492763	0.000000	300	299.975	0.000000	1.065468	2.826047
	60.0067	4.493722	0.000000	300	299.975	0.000000	1.065468	2.827006
	60.04	4.493722	0.000000	300	299.966	0.000000	1.065468	2.827006
	60.0733	4.493828	0.000000	300	299.975	0.000000	1.065468	2.827113
	60.1067	4.494254	0.000000	300	299.97	0.000000	1.065468	2.827539
	60.14	4.494148	0.000000	300	299.97	0.000000	1.065468	2.827432
	60.1733	4.494361	0.000000	300	299.975	0.000000	1.065468	2.827645
	60.2067	4.495213	0.000000	300	299.97	0.000000	1.065468	2.828498
	60.24	4.495959	0.000000	300	299.975	0.000000	1.065468	2.829244
	60.2733	4.495213	0.000000	300	299.97	0.000000	1.065468	2.828498
	60.3067	4.495640	0.000000	300	299.97	0.000000	1.065468	2.828924
	60.34	4.495426	0.000000	300	299.966	0.000000	1.065468	2.828711
	60.3733	4.497664	0.000000	300	299.966	0.000000	1.065468	2.830948
	60.4067	4.500967	0.000000	300	299.97	0.000000	1.065468	2.834251
	60.44	4.503524	0.000000	300	299.975	0.000000	1.065468	2.836809
	60.4733	4.507253	0.000000	300	299.97	0.000000	1.065468	2.840537
	60.5067	4.510023	0.000000	300	299.97	0.000000	1.065468	2.843308
	60.54	4.512687	0.000000	300	299.97	0.000000	1.065468	2.845971
	60.5733	4.513646	0.000000	300	299.975	0.000000	1.065468	2.846930
	60.6067	4.514925	0.000000	300	299.97	0.000000	1.065468	2.848209
	60.64	4.515138	0.000000	300	299.97	0.000000	1.065468	2.848422
	60.6733	4.516310	0.000000	300	299.975	0.000000	1.065468	2.849594
	60.7067	4.516736	0.000000	300	299.975	0.000000	1.065468	2.850020
	60.74	4.517056	0.000000	300	299.975	0.000000	1.065468	2.850340
	60.7733	4.515244	0.000000	300	299.975	0.000000	1.065468	2.848529
	60.8067	4.514712	0.000000	300	299.975	0.000000	1.065468	2.847996
	60.84	4.513326	0.000000	300	299.97	0.000000	1.065468	2.846611
	60.8733	4.512368	0.000000	300	299.975	0.000000	1.065468	2.845652
	60.9067	4.511089	0.000000	300	299.97	0.000000	1.065468	2.844373
	60.94	4.509810	0.000000	300	299.97	0.000000	1.065468	2.843095
	60.9733	4.509064	0.000000	300	299.97	0.000000	1.065468	2.842349
	61.0067	4.508212	0.000000	300	299.975	0.000000	1.065468	2.841497
	61.04	4.507573	0.000000	300	299.975	0.000000	1.065468	2.840857
	61.0733	4.506827	0.000000	300	299.975	0.000000	1.065468	2.840111
	61.1067	4.505975	0.000000	300	299.97	0.000000	1.065468	2.839259
	61.14	4.505655	0.000000	300	299.975	0.000000	1.065468	2.838939
	61.1733	4.504696	0.000000	300	299.97	0.000000	1.065468	2.837980
	61.2067	4.504163	0.000000	300	299.975	0.000000	1.065468	2.837448
	61.24	4.502565	0.000000	300	299.975	0.000000	1.065468	2.835850
	61.2733	4.501819	0.000000	300	299.975	0.000000	1.065468	2.835104
	61.3067	4.500328	0.000000	300	299.975	0.000000	1.065468	2.833612
	61.34	4.499902	0.000000	300	299.975	0.000000	1.065468	2.833186
	61.3733	4.498730	0.000000	300	299.975	0.000000	1.065468	2.832014
	61.38	4.498410	0.000000	300	299.975	0.000000	1.065468	2.831694