File: demo_data/sapphire_103-303-2.txt
Filename:	C:\Program Files (x86)\PerkinElmer\Pyris\data\sapphire_103-303-2.ds8d
Operator ID:
Sample ID:	Sapphire
Comment:
Serial Number:
Data Collected:	7/16/2024 7:24:39 PM
Sample Weight:	23.400 mg
Display Weight:	23.400
Validation
Validated:	No
By:
Date:
Calibration Information
Filename:	C:\Program Files (x86)\PerkinElmer\Pyris\Calibrations\Calib100to400_07162024-1.ds8c
Date/Time:	7/16/2024 3:47:43 PM
Initial Conditions
Temperature:	 103.00 °C
Purge Gas:
Purge Gas Rate:
Baseline Filename:
End Condition:	Go To Load
Total Points in Run:	44947
Method Steps:
Pre-Run Actions
Switch the Gas to Nitrogen at 20.0 ml/min
	Action occurs Immediately
Start the Run
	Action occurs Immediately
1)	Hold for 5.0 min at 103.00°C

2)	Heat from 103.00°C to 113.00°C at 15.00°C/min

3)	Hold for 2.0 min at 113.00°C

4)	Heat from 113.00°C to 123.00°C at 15.00°C/min

5)	Hold for 2.0 min at 123.00°C

6)	Heat from 123.00°C to 133.00°C at 15.00°C/min

7)	Hold for 2.0 min at 133.00°C

8)	Heat from 133.00°C to 143.00°C at 15.00°C/min

9)	Hold for 2.0 min at 143.00°C

10)	Heat from 143.00°C to 153.00°C at 15.00°C/min

11)	Hold for 2.0 min at 153.00°C

12)	Heat from 153.00°C to 163.00°C at 15.00°C/min

13)	Hold for 2.0 min at 163.00°C

14)	Heat from 163.00°C to 173.00°C at 15.00°C/min

15)	Hold for 2.0 min at 173.00°C

16)	Heat from 173.00°C to 183.00°C at 15.00°C/min

17)	Hold for 2.0 min at 183.00°C

18)	Heat from 183.00°C to 193.00°C at 15.00°C/min

19)	Hold for 2.0 min at 193.00°C

20)	Heat from 193.00°C to 203.00°C at 15.00°C/min

21)	Hold for 2.0 min at 203.00°C

22)	Heat from 203.00°C to 213.00°C at 15.00°C/min

23)	Hold for 2.0 min at 213.00°C

24)	Heat from 213.00°C to 223.00°C at 15.00°C/min

25)	Hold for 2.0 min at 223.00°C

26)	Heat from 223.00°C to 233.00°C at 15.00°C/min

27)	Hold for 2.0 min at 233.00°C

28)	Heat from 233.00°C to 243.00°C at 15.00°C/min

29)	Hold for 2.0 min at 243.00°C

30)	Heat from 243.00°C to 253.00°C at 15.00°C/min

31)	Hold for 2.0 min at 253.00°C

32)	Heat from 253.00°C to 263.00°C at 15.00°C/min

33)	Hold for 2.0 min at 263.00°C

34)	Heat from 263.00°C to 273.00°C at 15.00°C/min

35)	Hold for 2.0 min at 273.00°C

36)	Heat from 273.00°C to 283.00°C at 15.00°C/min

37)	Hold for 2.0 min at 283.00°C

38)	Heat from 283.00°C to 293.00°C at 15.00°C/min

39)	Hold for 2.0 min at 293.00°C

40)	Heat from 293.00°C to 303.00°C at 15.00°C/min

41)	Hold for 3.0 min at 303.00°C

1) DSC 8500 Isothermal
	Time     	Unsubtracted	Baseline     	Program     	Sample     	Approx.     	Heat Flow     	Uncorrected
	          	Heat Flow     	Heat Flow     	Temperature	Temperature	Gas Flow     	Calibration	Heat Flow
	0.000000	66.0172	0.000000	103	100.766	0.000000	1.062474	68.3967
	0.033333	55.9055	0.000000	103	102.45	0.000000	1.062499	56.8655
	0.066667	53.8593	0.000000	103	102.691	0.000000	1.062503	54.8693
	0.100000	41.1807	0.000000	103	102.812	0.000000	1.062504	42.1919
	0.133333	27.1774	0.000000	103	102.879	0.000000	1.062505	28.3655
	0.166667	16.5577	0.000000	103	102.916	0.000000	1.062506	18.1153
	0.200000	9.669608	0.000000	103	102.933	0.000000	1.062506	11.5634
	0.233333	5.540496	0.000000	103	102.945	0.000000	1.062506	7.655252
	0.266667	3.167737	0.000000	103	102.954	0.000000	1.062507	5.408690
	0.300000	1.834917	0.000000	103	102.954	0.000000	1.062507	4.143563
	0.333333	1.095939	0.000000	103	102.958	0.000000	1.062507	3.439121
	0.366667	0.687912	0.000000	103	102.958	0.000000	1.062507	3.049181
	0.400000	0.463180	0.000000	103	102.962	0.000000	1.062507	2.834130
	0.433333	0.339412	0.000000	103	102.962	0.000000	1.062507	2.715130
	0.466667	0.269746	0.000000	103	102.962	0.000000	1.062507	2.647979
	0.500000	0.230093	0.000000	103	102.962	0.000000	1.062507	2.609623
	0.533333	0.208418	0.000000	103	102.962	0.000000	1.062507	2.587947
	0.566667	0.196093	0.000000	103	102.962	0.000000	1.062507	2.575622
	0.600000	0.188868	0.000000	103	102.962	0.000000	1.062507	2.568397
	0.633333	0.183981	0.000000	103	102.962	0.000000	1.062507	2.563510
	0.666667	0.180368	0.000000	103	102.962	0.000000	1.062507	2.559897
	0.700000	0.177818	0.000000	103	102.966	0.000000	1.062507	2.557347
	0.733333	0.176012	0.000000	103	102.962	0.000000	1.062507	2.555541
	0.766667	0.175268	0.000000	103	102.962	0.000000	1.062507	2.554797
	0.800000	0.174312	0.000000	103	102.962	0.000000	1.062507	2.553841
	0.833333	0.173037	0.000000	103	102.962	0.000000	1.062507	2.552566
	0.866667	0.171655	0.000000	103	102.962	0.000000	1.062507	2.551185
	0.900000	0.170805	0.000000	103	102.962	0.000000	1.062507	2.550335
	0.933333	0.170168	0.000000	103	102.962	0.000000	1.062507	2.549697
	0.966667	0.169530	0.000000	103	102.962	0.000000	1.062507	2.549060
	1.000000	0.168999	0.000000	103	102.962	0.000000	1.062507	2.548528
	1.033333	0.168149	0.000000	103	102.962	0.000000	1.062507	2.547678
	1.066667	0.166874	0.000000	103	102.962	0.000000	1.062507	2.546403
	1.100000	0.166024	0.000000	103	102.962	0.000000	1.062507	2.545553
	1.133333	0.165812	0.000000	103	102.962	0.000000	1.062507	2.545341
	1.166667	0.165068	0.000000	103	102.962	0.000000	1.062507	2.544597
	1.200000	0.164643	0.000000	103	102.962	0.000000	1.062507	2.544172
	1.233333	0.163899	0.000000	103	102.962	0.000000	1.062507	2.543428
	1.266667	0.163155	0.000000	103	102.962	0.000000	1.062507	2.542685
	1.300000	0.162943	0.000000	103	102.962	0.000000	1.062507	2.542472
	1.333333	0.162837	0.000000	103	102.962	0.000000	1.062507	2.542366
	1.366667	0.162943	0.000000	103	102.962	0.000000	1.062507	2.542472
	1.400000	0.162943	0.000000	103	102.962	0.000000	1.062507	2.542472
	1.433333	0.163049	0.000000	103	102.962	0.000000	1.062507	2.542578
	1.466667	0.162518	0.000000	103	102.962	0.000000	1.062507	2.542047
	1.500000	0.161987	0.000000	103	102.962	0.000000	1.062507	2.541516
	1.533333	0.161774	0.000000	103	102.962	0.000000	1.062507	2.541303
	1.566667	0.160924	0.000000	103	102.962	0.000000	1.062507	2.540453
	1.600000	0.160605	0.000000	103	102.962	0.000000	1.062507	2.540135
	1.633333	0.160499	0.000000	103	102.962	0.000000	1.062507	2.540028
	1.666667	0.160393	0.000000	103	102.962	0.000000	1.062507	2.539922
	1.700000	0.160393	0.000000	103	102.962	0.000000	1.062507	2.539922
	1.733333	0.160180	0.000000	103	102.962	0.000000	1.062507	2.539710
	1.766667	0.159862	0.000000	103	102.962	0.000000	1.062507	2.539391
	1.800000	0.159649	0.000000	103	102.962	0.000000	1.062507	2.539178
	1.833333	0.159543	0.000000	103	102.962	0.000000	1.062507	2.539072
	1.866667	0.159012	0.000000	103	102.962	0.000000	1.062507	2.538541
	1.900000	0.158799	0.000000	103	102.962	0.000000	1.062507	2.538328
	1.933333	0.158693	0.000000	103	102.962	0.000000	1.062507	2.538222
	1.966667	0.158374	0.000000	103	102.962	0.000000	1.062507	2.537903
	2.000000	0.158268	0.000000	103	102.962	0.000000	1.062507	2.537797
	2.033333	0.157630	0.000000	103	102.962	0.000000	1.062507	2.537160
	2.066667	0.157312	0.000000	103	102.962	0.000000	1.062507	2.536841
	2.100000	0.157099	0.000000	103	102.962	0.000000	1.062507	2.536628
	2.133333	0.156674	0.000000	103	102.962	0.000000	1.062507	2.536203
	2.166667	0.156462	0.000000	103	102.962	0.000000	1.062507	2.535991
	2.200000	0.156355	0.000000	103	102.962	0.000000	1.062507	2.535885
	2.233333	0.156568	0.000000	103	102.962	0.000000	1.062507	2.536097
	2.266667	0.157099	0.000000	103	102.962	0.000000	1.062507	2.536628
	2.300000	0.157524	0.000000	103	102.962	0.000000	1.062507	2.537053
	2.333333	0.157949	0.000000	103	102.962	0.000000	1.062507	2.537478
	2.366667	0.158055	0.000000	103	102.962	0.000000	1.062507	2.537585
	2.400000	0.158268	0.000000	103	102.962	0.000000	1.062507	2.537797
	2.433333	0.158374	0.000000	103	102.962	0.000000	1.062507	2.537903
	2.466667	0.158374	0.000000	103	102.962	0.000000	1.062507	2.537903
	2.500000	0.158374	0.000000	103	102.962	0.000000	1.062507	2.537903
	2.533333	0.158268	0.000000	103	102.962	0.000000	1.062507	2.537797
	2.566667	0.158055	0.000000	103	102.962	0.000000	1.062507	2.537585
	2.600000	0.158374	0.000000	103	102.962	0.000000	1.062507	2.537903
	2.633333	0.158480	0.000000	103	102.962	0.000000	1.062507	2.538010
	2.666667	0.158693	0.000000	103	102.962	0.000000	1.062507	2.538222
	2.700000	0.159118	0.000000	103	102.958	0.000000	1.062507	2.538647
	2.733333	0.159118	0.000000	103	102.962	0.000000	1.062507	2.538647
	2.766667	0.159012	0.000000	103	102.962	0.000000	1.062507	2.538541
	2.800000	0.158905	0.000000	103	102.962	0.000000	1.062507	2.538435
	2.833333	0.159012	0.000000	103	102.962	0.000000	1.062507	2.538541
	2.866667	0.159330	0.000000	103	102.958	0.000000	1.062507	2.538860
	2.900000	0.159543	0.000000	103	102.958	0.000000	1.062507	2.539072
	2.933333	0.160180	0.000000	103	102.962	0.000000	1.062507	2.539710
	2.966667	0.160393	0.000000	103	102.962	0.000000	1.062507	2.539922
	3.000000	0.160605	0.000000	103	102.962	0.000000	1.062507	2.540135
	3.033333	0.160605	0.000000	103	102.962	0.000000	1.062507	2.540135
	3.066667	0.160287	0.000000	103	102.962	0.000000	1.062507	2.539816
	3.100000	0.159862	0.000000	103	102.962	0.000000	1.062507	2.539391
	3.133333	0.159755	0.000000	103	102.962	0.000000	1.062507	2.539285
	3.166667	0.159755	0.000000	103	102.962	0.000000	1.062507	2.539285
	3.200000	0.159755	0.000000	103	102.962	0.000000	1.062507	2.539285
	3.233333	0.159436	0.000000	103	102.958	0.000000	1.062507	2.538966
	3.266667	0.159330	0.000000	103	102.958	0.000000	1.062507	2.538860
	3.300000	0.158905	0.000000	103	102.958	0.000000	1.062507	2.538435
	3.333333	0.158693	0.000000	103	102.958	0.000000	1.062507	2.538222
	3.366667	0.158587	0.000000	103	102.962	0.000000	1.062507	2.538116
	3.400000	0.158587	0.000000	103	102.962	0.000000	1.062507	2.538116
	3.433333	0.158587	0.000000	103	102.962	0.000000	1.062507	2.538116
	3.466667	0.158161	0.000000	103	102.958	0.000000	1.062507	2.537691
	3.500000	0.157630	0.000000	103	102.962	0.000000	1.062507	2.537160
	3.533333	0.157205	0.000000	103	102.962	0.000000	1.062507	2.536735
	3.566667	0.157099	0.000000	103	102.962	0.000000	1.062507	2.536628
	3.600000	0.156674	0.000000	103	102.958	0.000000	1.062507	2.536203
	3.633333	0.156461	0.000000	103	102.958	0.000000	1.062507	2.535991
	3.666667	0.156462	0.000000	103	102.962	0.000000	1.062507	2.535991
	3.700000	0.156780	0.000000	103	102.958	0.000000	1.062507	2.536310
	3.733333	0.156355	0.000000	103	102.958	0.000000	1.062507	2.535885
	3.766667	0.156780	0.000000	103	102.958	0.000000	1.062507	2.536310
	3.800000	0.157312	0.000000	103	102.962	0.000000	1.062507	2.536841
	3.833333	0.157311	0.000000	103	102.958	0.000000	1.062507	2.536841
	3.866667	0.157418	0.000000	103	102.958	0.000000	1.062507	2.536947
	3.900000	0.157630	0.000000	103	102.958	0.000000	1.062507	2.537160
	3.933333	0.157949	0.000000	103	102.958	0.000000	1.062507	2.537478
	3.966667	0.158268	0.000000	103	102.962	0.000000	1.062507	2.537797
	4.000000	0.158162	0.000000	103	102.962	0.000000	1.062507	2.537691
	4.033333	0.157843	0.000000	103	102.962	0.000000	1.062507	2.537372
	4.066667	0.157524	0.000000	103	102.958	0.000000	1.062507	2.537053
	4.100000	0.157418	0.000000	103	102.958	0.000000	1.062507	2.536947
	4.133333	0.157524	0.000000	103	102.958	0.000000	1.062507	2.537053
	4.166667	0.157630	0.000000	103	102.958	0.000000	1.062507	2.537160
	4.200000	0.158055	0.000000	103	102.962	0.000000	1.062507	2.537585
	4.233333	0.158268	0.000000	103	102.958	0.000000	1.062507	2.537797
	4.266667	0.158268	0.000000	103	102.962	0.000000	1.062507	2.537797
	4.300000	0.157949	0.000000	103	102.958	0.000000	1.062507	2.537478
	4.333333	0.157736	0.000000	103	102.958	0.000000	1.062507	2.537266
	4.366667	0.157205	0.000000	103	102.958	0.000000	1.062507	2.536735
	4.400000	0.157099	0.000000	103	102.958	0.000000	1.062507	2.536628
	4.433333	0.156993	0.000000	103	102.958	0.000000	1.062507	2.536522
	4.466667	0.156993	0.000000	103	102.958	0.000000	1.062507	2.536522
	4.500000	0.157311	0.000000	103	102.958	0.000000	1.062507	2.536841
	4.533333	0.157099	0.000000	103	102.962	0.000000	1.062507	2.536628
	4.566667	0.156993	0.000000	103	102.962	0.000000	1.062507	2.536522
	4.600000	0.156780	0.000000	103	102.962	0.000000	1.062507	2.536310
	4.633333	0.156461	0.000000	103	102.958	0.000000	1.062507	2.535991
	4.666667	0.156249	0.000000	103	102.958	0.000000	1.062507	2.535778
	4.700000	0.156355	0.000000	103	102.958	0.000000	1.062507	2.535885
	4.733333	0.156355	0.000000	103	102.962	0.000000	1.062507	2.535885
	4.766667	0.156249	0.000000	103	102.962	0.000000	1.062507	2.535778
	4.800000	0.155399	0.000000	103	102.958	0.000000	1.062507	2.534928
	4.833333	0.154974	0.000000	103	102.958	0.000000	1.062507	2.534503
	4.866667	0.154868	0.000000	103	102.958	0.000000	1.062507	2.534397
	4.900000	0.154230	0.000000	103	102.958	0.000000	1.062507	2.533759
	4.933333	0.154230	0.000000	103	102.958	0.000000	1.062507	2.533759
	4.966667	0.154549	0.000000	103	102.958	0.000000	1.062507	2.534078
2) DSC 8500 Temperature Scan
	4.983333	0.154879	0.000000	103.004	102.958	0.000000	1.062507	2.534397
	4.988667	0.147982	0.000000	103.083	102.958	0.000000	1.062507	2.527278
	4.994000	0.144011	0.000000	103.162	102.966	0.000000	1.062507	2.507835
	4.999333	0.148292	0.000000	103.241	102.975	0.000000	1.062507	2.491579
	5.004667	0.160707	0.000000	103.32	103	0.000000	1.062507	2.484567
	5.010000	0.167396	0.000000	103.4	103.037	0.000000	1.062508	2.485737
	5.015333	0.164461	0.000000	103.483	103.079	0.000000	1.062508	2.494451
	5.020667	0.153691	0.000000	103.562	103.133	0.000000	1.062509	2.510603
	5.026000	0.142765	0.000000	103.641	103.195	0.000000	1.062510	2.536743
	5.031333	0.140855	0.000000	103.72	103.258	0.000000	1.062511	2.575739
	5.036667	0.157575	0.000000	103.8	103.329	0.000000	1.062512	2.631205
	5.042000	0.200891	0.000000	103.879	103.4	0.000000	1.062513	2.706646
	5.047333	0.275527	0.000000	103.962	103.475	0.000000	1.062514	2.804400
	5.052667	0.383022	0.000000	104.041	103.545	0.000000	1.062515	2.925530
	5.058000	0.522253	0.000000	104.12	103.62	0.000000	1.062517	3.070035
	5.063333	0.689717	0.000000	104.2	103.695	0.000000	1.062518	3.236748
	5.068667	0.881118	0.000000	104.279	103.775	0.000000	1.062519	3.423967
	5.074000	1.090918	0.000000	104.358	103.854	0.000000	1.062520	3.628931
	5.079333	1.313439	0.000000	104.441	103.933	0.000000	1.062521	3.848346
	5.084667	1.543318	0.000000	104.52	104.012	0.000000	1.062522	4.078705
	5.090000	1.775861	0.000000	104.6	104.091	0.000000	1.062524	4.316396
	5.095333	2.007137	0.000000	104.679	104.17	0.000000	1.062525	4.558019
	5.100667	2.234257	0.000000	104.758	104.25	0.000000	1.062526	4.800705
	5.106000	2.454368	0.000000	104.837	104.329	0.000000	1.062527	5.041373
	5.111333	2.666064	0.000000	104.92	104.408	0.000000	1.062528	5.278110
	5.116667	2.867677	0.000000	105	104.487	0.000000	1.062530	5.508472
	5.122000	3.058422	0.000000	105.079	104.566	0.000000	1.062531	5.730760
	5.127333	3.238285	0.000000	105.158	104.641	0.000000	1.062532	5.944016
	5.132667	3.407061	0.000000	105.237	104.72	0.000000	1.062533	6.147179
	5.138000	3.564877	0.000000	105.316	104.804	0.000000	1.062534	6.339717
	5.143333	3.711412	0.000000	105.4	104.883	0.000000	1.062536	6.520887
	5.148667	3.847676	0.000000	105.479	104.958	0.000000	1.062537	6.691112
	5.154000	3.973988	0.000000	105.558	105.037	0.000000	1.062538	6.850394
	5.159333	4.090595	0.000000	105.637	105.116	0.000000	1.062539	6.998626
	5.164667	4.197588	0.000000	105.716	105.2	0.000000	1.062540	7.135702
	5.170000	4.296392	0.000000	105.795	105.279	0.000000	1.062541	7.262896
	5.175333	4.387337	0.000000	105.879	105.358	0.000000	1.062543	7.380421
	5.180667	4.471041	0.000000	105.958	105.433	0.000000	1.062544	7.488915
	5.186000	4.547640	0.000000	106.037	105.516	0.000000	1.062545	7.588484
	5.191333	4.617794	0.000000	106.116	105.6	0.000000	1.062546	7.679872
	5.196667	4.681796	0.000000	106.195	105.679	0.000000	1.062548	7.763397
	5.202000	4.740078	0.000000	106.275	105.758	0.000000	1.062549	7.839590
	5.207333	4.793264	0.000000	106.358	105.837	0.000000	1.062550	7.909090
	5.212667	4.842153	0.000000	106.437	105.916	0.000000	1.062551	7.972852
	5.218000	4.886009	0.000000	106.516	105.995	0.000000	1.062552	8.030239
	5.223333	4.926404	0.000000	106.595	106.079	0.000000	1.062554	8.082845
	5.228667	4.963136	0.000000	106.675	106.158	0.000000	1.062555	8.130669
	5.234000	4.996712	0.000000	106.754	106.237	0.000000	1.062556	8.174242
	5.239333	5.027169	0.000000	106.837	106.316	0.000000	1.062557	8.213779
	5.244667	5.055050	0.000000	106.916	106.391	0.000000	1.062558	8.249808
	5.250000	5.081392	0.000000	106.995	106.475	0.000000	1.062559	8.283501
	5.255333	5.105364	0.000000	107.075	106.554	0.000000	1.062561	8.314112
	5.260667	5.127715	0.000000	107.154	106.637	0.000000	1.062562	8.342386
	5.266000	5.148329	0.000000	107.233	106.712	0.000000	1.062563	8.368321
	5.271333	5.166662	0.000000	107.316	106.795	0.000000	1.062564	8.391389
	5.276667	5.182926	0.000000	107.395	106.875	0.000000	1.062565	8.411906
	5.282000	5.197534	0.000000	107.475	106.954	0.000000	1.062567	8.430298
	5.287333	5.210395	0.000000	107.554	107.037	0.000000	1.062568	8.446565
	5.292667	5.222031	0.000000	107.633	107.116	0.000000	1.062569	8.461238
	5.298000	5.231991	0.000000	107.712	107.195	0.000000	1.062570	8.473892
	5.303333	5.241581	0.000000	107.795	107.275	0.000000	1.062571	8.485908
	5.308667	5.250071	0.000000	107.875	107.358	0.000000	1.062573	8.496544
	5.314000	5.257674	0.000000	107.954	107.437	0.000000	1.062574	8.506011
	5.319333	5.264592	0.000000	108.033	107.516	0.000000	1.062575	8.514627
	5.324667	5.271045	0.000000	108.112	107.595	0.000000	1.062576	8.522606
[...]
	56.8133	-0.237511	0.000000	303	302.945	0.000000	1.065513	1.307277
	56.8333	-0.237743	0.000000	303	302.95	0.000000	1.065513	1.305999
	56.8533	-0.237952	0.000000	303	302.95	0.000000	1.065513	1.304720
	56.8733	-0.237367	0.000000	303	302.95	0.000000	1.065513	1.304401
	56.8933	-0.236833	0.000000	303	302.945	0.000000	1.065513	1.304401
	56.9133	-0.236940	0.000000	303	302.95	0.000000	1.065513	1.304294
	56.9333	-0.235768	0.000000	303	302.95	0.000000	1.065513	1.305466
	56.9533	-0.236194	0.000000	303	302.945	0.000000	1.065513	1.305040
	56.9733	-0.236301	0.000000	303	302.95	0.000000	1.065513	1.304933
	56.9933	-0.237473	0.000000	303	302.945	0.000000	1.065513	1.303761
	57.0133	-0.237579	0.000000	303	302.945	0.000000	1.065513	1.303655
	57.0333	-0.237792	0.000000	303	302.945	0.000000	1.065513	1.303442
	57.0533	-0.238325	0.000000	303	302.945	0.000000	1.065513	1.302909
	57.0733	-0.238858	0.000000	303	302.945	0.000000	1.065513	1.302376
	57.0933	-0.238645	0.000000	303	302.95	0.000000	1.065513	1.302589
	57.1133	-0.238964	0.000000	303	302.945	0.000000	1.065513	1.302270
	57.1333	-0.239604	0.000000	303	302.95	0.000000	1.065513	1.301630
	57.1533	-0.240350	0.000000	303	302.945	0.000000	1.065513	1.300884
	57.1733	-0.240563	0.000000	303	302.945	0.000000	1.065513	1.300671
	57.1933	-0.240669	0.000000	303	302.95	0.000000	1.065513	1.300565
	57.2133	-0.241202	0.000000	303	302.95	0.000000	1.065513	1.300032
	57.2333	-0.242374	0.000000	303	302.95	0.000000	1.065513	1.298860
	57.2533	-0.243972	0.000000	303	302.95	0.000000	1.065513	1.297262
	57.2733	-0.245144	0.000000	303	302.945	0.000000	1.065513	1.296090
	57.2933	-0.245677	0.000000	303	302.95	0.000000	1.065513	1.295557
	57.3133	-0.245251	0.000000	303	302.945	0.000000	1.065513	1.295983
	57.3333	-0.245464	0.000000	303	302.945	0.000000	1.065513	1.295770
	57.3533	-0.245144	0.000000	303	302.95	0.000000	1.065513	1.296090
	57.3733	-0.245677	0.000000	303	302.945	0.000000	1.065513	1.295557
	57.3933	-0.245251	0.000000	303	302.945	0.000000	1.065513	1.295983
	57.4133	-0.245357	0.000000	303	302.945	0.000000	1.065513	1.295876
	57.4333	-0.246636	0.000000	303	302.945	0.000000	1.065513	1.294598
	57.4533	-0.246636	0.000000	303	302.95	0.000000	1.065513	1.294598
	57.4733	-0.246743	0.000000	303	302.95	0.000000	1.065513	1.294491
	57.4933	-0.246956	0.000000	303	302.945	0.000000	1.065513	1.294278
	57.5133	-0.246423	0.000000	303	302.945	0.000000	1.065513	1.294811
	57.5333	-0.246210	0.000000	303	302.95	0.000000	1.065513	1.295024
	57.5533	-0.246210	0.000000	303	302.95	0.000000	1.065513	1.295024
	57.5733	-0.246423	0.000000	303	302.95	0.000000	1.065513	1.294811
	57.5933	-0.246423	0.000000	303	302.945	0.000000	1.065513	1.294811
	57.6133	-0.246103	0.000000	303	302.95	0.000000	1.065513	1.295131
	57.6333	-0.246103	0.000000	303	302.945	0.000000	1.065513	1.295131
	57.6533	-0.246636	0.000000	303	302.945	0.000000	1.065513	1.294598
	57.6733	-0.246849	0.000000	303	302.945	0.000000	1.065513	1.294385
	57.6933	-0.246636	0.000000	303	302.95	0.000000	1.065513	1.294598
	57.7133	-0.246316	0.000000	303	302.95	0.000000	1.065513	1.294918
	57.7333	-0.245997	0.000000	303	302.95	0.000000	1.065513	1.295237
	57.7533	-0.245144	0.000000	303	302.95	0.000000	1.065513	1.296090
	57.7733	-0.244292	0.000000	303	302.945	0.000000	1.065513	1.296942
	57.7933	-0.244505	0.000000	303	302.95	0.000000	1.065513	1.296729
	57.8133	-0.243972	0.000000	303	302.945	0.000000	1.065513	1.297262
	57.8333	-0.244079	0.000000	303	302.945	0.000000	1.065513	1.297155
	57.8533	-0.244612	0.000000	303	302.945	0.000000	1.065513	1.296622
	57.8733	-0.244825	0.000000	303	302.95	0.000000	1.065513	1.296409
	57.8933	-0.244718	0.000000	303	302.95	0.000000	1.065513	1.296516
	57.9133	-0.245357	0.000000	303	302.945	0.000000	1.065513	1.295876
	57.9333	-0.244612	0.000000	303	302.945	0.000000	1.065513	1.296622
	57.9533	-0.244612	0.000000	303	302.945	0.000000	1.065513	1.296622
	57.9733	-0.243972	0.000000	303	302.95	0.000000	1.065513	1.297262
	57.9933	-0.244079	0.000000	303	302.95	0.000000	1.065513	1.297155
	58.0133	-0.243439	0.000000	303	302.95	0.000000	1.065513	1.297794
	58.0333	-0.243226	0.000000	303	302.945	0.000000	1.065513	1.298007
	58.0533	-0.243226	0.000000	303	302.95	0.000000	1.065513	1.298008
	58.0733	-0.243333	0.000000	303	302.95	0.000000	1.065513	1.297901
	58.0933	-0.243972	0.000000	303	302.945	0.000000	1.065513	1.297262
	58.1133	-0.244079	0.000000	303	302.95	0.000000	1.065513	1.297155
	58.1333	-0.244292	0.000000	303	302.95	0.000000	1.065513	1.296942
	58.1533	-0.244185	0.000000	303	302.95	0.000000	1.065513	1.297049
	58.1733	-0.244931	0.000000	303	302.95	0.000000	1.065513	1.296303
	58.1933	-0.245464	0.000000	303	302.945	0.000000	1.065513	1.295770
	58.2133	-0.245144	0.000000	303	302.95	0.000000	1.065513	1.296090
	58.2333	-0.245571	0.000000	303	302.945	0.000000	1.065513	1.295663
	58.2533	-0.244825	0.000000	303	302.95	0.000000	1.065513	1.296409
	58.2733	-0.244718	0.000000	303	302.95	0.000000	1.065513	1.296516
	58.2933	-0.244292	0.000000	303	302.95	0.000000	1.065513	1.296942
	58.3133	-0.243972	0.000000	303	302.95	0.000000	1.065513	1.297262
	58.3333	-0.243759	0.000000	303	302.95	0.000000	1.065513	1.297475
	58.3533	-0.244185	0.000000	303	302.95	0.000000	1.065513	1.297049
	58.3733	-0.244079	0.000000	303	302.95	0.000000	1.065513	1.297155
	58.3933	-0.244185	0.000000	303	302.945	0.000000	1.065513	1.297049
	58.4133	-0.244185	0.000000	303	302.95	0.000000	1.065513	1.297049
	58.4333	-0.243866	0.000000	303	302.95	0.000000	1.065513	1.297368
	58.4533	-0.244292	0.000000	303	302.95	0.000000	1.065513	1.296942
	58.4733	-0.244931	0.000000	303	302.95	0.000000	1.065513	1.296303
	58.4933	-0.245144	0.000000	303	302.95	0.000000	1.065513	1.296090
	58.5133	-0.245997	0.000000	303	302.95	0.000000	1.065513	1.295237
	58.5333	-0.246103	0.000000	303	302.945	0.000000	1.065513	1.295131
	58.5533	-0.246529	0.000000	303	302.95	0.000000	1.065513	1.294704
	58.5733	-0.246743	0.000000	303	302.95	0.000000	1.065513	1.294491
	58.5933	-0.246849	0.000000	303	302.95	0.000000	1.065513	1.294385
	58.6133	-0.246849	0.000000	303	302.95	0.000000	1.065513	1.294385
	58.6333	-0.247808	0.000000	303	302.945	0.000000	1.065513	1.293426
	58.6533	-0.248448	0.000000	303	302.941	0.000000	1.065513	1.292786
	58.6733	-0.248661	0.000000	303	302.945	0.000000	1.065513	1.292573
	58.6933	-0.248554	0.000000	303	302.95	0.000000	1.065513	1.292680
	58.7133	-0.248341	0.000000	303	302.95	0.000000	1.065513	1.292893
	58.7333	-0.248234	0.000000	303	302.95	0.000000	1.065513	1.293000
	58.7533	-0.248660	0.000000	303	302.95	0.000000	1.065513	1.292573
	58.7733	-0.248874	0.000000	303	302.954	0.000000	1.065513	1.292360
	58.7933	-0.249406	0.000000	303	302.945	0.000000	1.065513	1.291828
	58.8133	-0.249193	0.000000	303	302.95	0.000000	1.065513	1.292041
	58.8333	-0.249087	0.000000	303	302.95	0.000000	1.065513	1.292147
	58.8533	-0.249193	0.000000	303	302.95	0.000000	1.065513	1.292041
	58.8733	-0.249087	0.000000	303	302.95	0.000000	1.065513	1.292147
	58.8933	-0.249087	0.000000	303	302.945	0.000000	1.065513	1.292147
	58.9133	-0.249193	0.000000	303	302.95	0.000000	1.065513	1.292041
	58.9333	-0.248767	0.000000	303	302.95	0.000000	1.065513	1.292467
	58.9533	-0.249087	0.000000	303	302.945	0.000000	1.065513	1.292147
	58.9733	-0.249513	0.000000	303	302.945	0.000000	1.065513	1.291721
	58.9933	-0.249726	0.000000	303	302.95	0.000000	1.065513	1.291508
	59.0133	-0.249619	0.000000	303	302.95	0.000000	1.065513	1.291615
	59.0333	-0.250365	0.000000	303	302.945	0.000000	1.065513	1.290869
	59.0533	-0.251111	0.000000	303	302.95	0.000000	1.065513	1.290123
	59.0733	-0.251964	0.000000	303	302.95	0.000000	1.065513	1.289270
	59.0933	-0.252816	0.000000	303	302.95	0.000000	1.065513	1.288418
	59.1133	-0.253242	0.000000	303	302.95	0.000000	1.065513	1.287992
	59.1333	-0.253668	0.000000	303	302.945	0.000000	1.065513	1.287565
	59.1533	-0.254414	0.000000	303	302.95	0.000000	1.065513	1.286820
	59.1733	-0.254308	0.000000	303	302.95	0.000000	1.065513	1.286926
	59.1933	-0.255054	0.000000	303	302.95	0.000000	1.065513	1.286180
	59.2133	-0.255054	0.000000	303	302.95	0.000000	1.065513	1.286180
	59.2333	-0.254627	0.000000	303	302.95	0.000000	1.065513	1.286607
	59.2533	-0.255054	0.000000	303	302.95	0.000000	1.065513	1.286180
	59.2733	-0.255160	0.000000	303	302.95	0.000000	1.065513	1.286074
	59.2933	-0.255586	0.000000	303	302.945	0.000000	1.065513	1.285648
	59.3133	-0.256332	0.000000	303	302.945	0.000000	1.065513	1.284902
	59.3333	-0.256439	0.000000	303	302.95	0.000000	1.065513	1.284795
	59.3533	-0.257291	0.000000	303	302.95	0.000000	1.065513	1.283943
	59.3733	-0.257504	0.000000	303	302.95	0.000000	1.065513	1.283730
	59.375	-0.257398	0.000000	303	302.95	0.000000	1.065513	1.283836